wavelength spectrum_sum 3smoothed_sum spectrum_optimal 3smoothed_optimal
3505.82 -0.424214 -0.486227 129.151 78.6848
3508.73 -1.03447 2.08237 106.904 127.65
3511.64 7.70579 7.4649 146.896 117.84
3514.55 15.7234 15.2633 99.7218 125.427
3517.47 22.3607 22.8139 129.663 125.099
3520.38 30.3575 23.9218 145.912 139.387
3523.29 19.0471 16.6678 142.587 133.781
3526.2 0.598763 6.29252 112.844 119.048
3529.11 -0.768294 -1.08127 101.714 120.497
3532.03 -3.07429 3.08894 146.932 128.348
3534.94 13.1094 3.14554 136.397 148.244
3537.85 -0.598494 5.30996 161.403 136.42
3540.76 3.41898 -7.72145 111.461 133.4
3543.68 -25.9848 -7.77867 127.336 127.623
3546.59 -0.77015 -1.77328 144.073 135.711
3549.5 21.4351 9.95386 135.724 122.234
3552.41 9.1966 9.39879 86.9046 123.83
3555.33 -2.43537 7.50071 148.861 139.244
3558.24 15.7409 11.065 181.967 168.749
3561.15 19.8894 11.864 175.418 169.661
3564.06 -0.0381485 9.12219 151.599 167.097
3566.97 7.51535 3.28092 174.275 167.187
3569.89 2.36557 5.41921 175.689 179.481
3572.8 6.37671 1.07708 188.479 171.562
3575.71 -5.51102 0.564879 150.517 180.136
3578.62 0.828955 -1.18217 201.411 182.285
3581.54 1.13555 -5.07991 194.929 193.924
3584.45 -17.2042 2.05693 185.431 182.202
3587.36 22.2395 6.73239 166.247 188.04
3590.27 15.1619 13.347 212.441 188.057
3593.19 2.63946 3.91241 185.482 189.651
3596.1 -6.06416 2.86214 171.031 179.257
3599.01 12.0111 11.1393 181.259 183.551
3601.92 27.4709 20.517 198.362 184.467
3604.83 22.0688 25.5952 173.779 185.729
3607.75 27.2457 13.3926 185.046 185.895
3610.66 -9.13666 15.2079 198.86 193.71
3613.57 27.5147 8.98292 197.224 206.226
3616.48 8.57069 20.2084 222.593 192.845
3619.4 24.5397 20.7571 158.718 195.937
3622.31 29.1609 29.8339 206.501 192.459
3625.22 35.8012 25.0245 212.158 209.215
3628.13 10.1113 29.1568 208.987 206.919
3631.05 41.5578 29.7952 199.61 215.589
3633.96 37.7166 34.5005 238.17 230.933
3636.87 24.2272 34.6244 255.019 244.051
3639.78 41.9295 40.2808 238.964 240.807
3642.69 54.6858 48.6027 228.438 240.579
3645.61 49.1928 46.6139 254.334 247.084
3648.52 35.9632 39.7197 258.478 270.512
3651.43 34.0032 38.6792 298.724 254.044
3654.34 46.0713 44.962 204.931 238.284
3657.26 54.8115 58.6883 211.198 223.316
3660.17 75.1821 55.9573 253.82 228.084
3663.08 37.8782 56.8198 219.235 250.662
3665.99 57.399 51.6384 278.933 247.725
3668.9 59.638 54.3664 245.009 254.191
3671.82 46.0622 42.3694 238.632 249.48
3674.73 21.4079 34.6797 264.801 246.811
3677.64 36.5689 37.4485 237.001 264.414
3680.55 54.3688 51.37 291.44 287.955
3683.47 63.1724 64.0791 335.423 302.557
3686.38 74.6962 60.079 280.808 293.357
3689.29 42.3686 67.1587 263.84 267.659
3692.2 84.4114 72.7148 258.329 253.272
3695.11 91.3644 81.0059 237.645 258.296
3698.03 67.2418 68.4516 278.912 271.215
3700.94 46.7486 58.2337 297.089 293.029
3703.85 60.7106 62.0565 303.087 293.86
3706.76 78.7103 67.6667 281.405 315.817
3709.67 63.5791 73.1214 362.96 309.656
3712.59 77.0748 69.3167 284.602 316.743
3715.5 67.2961 77.8442 302.665 296.84
3718.41 89.1618 77.9398 303.251 298.328
3721.32 77.3614 88.4699 289.066 295.096
3724.24 98.8865 87.9454 292.971 293.788
3727.15 87.5882 93.7195 299.327 305.138
3730.06 94.6837 84.194 323.118 319.174
3732.97 70.3101 91.418 335.077 317.753
3735.88 109.26 97.7277 295.066 325.455
3738.8 113.613 96.3803 346.223 327.759
3741.71 66.2679 84.4227 341.987 330.406
3744.62 73.3874 75.3348 303.009 349.762
3747.53 86.3493 80.1106 404.292 342.981
3750.44 80.5951 77.0244 321.643 379.458
3753.36 64.1289 81.0658 412.44 351.311
3756.27 98.4733 85.2866 319.852 385.096
3759.18 93.2577 96.4547 422.996 354.44
3762.09 97.6332 91.152 320.473 366.921
3765 82.5652 85.193 357.293 352.936
3767.92 75.3805 78.7674 381.043 388.414
3770.83 78.3566 89.1975 426.907 410.219
3773.74 113.855 95.0354 422.708 416.4
3776.65 92.8943 94.1517 399.584 393.052
3779.56 75.7053 102.521 356.863 389.11
3782.47 138.962 115.665 410.885 409.422
3785.39 132.327 133.871 460.518 430.692
3788.3 130.323 143.412 420.673 447.39
3791.21 167.586 160.088 460.979 453.857
3794.12 182.356 170.443 479.919 481.993
3797.03 161.388 159.027 505.082 494.517
3799.95 133.338 153.052 498.55 490.403
3802.86 164.43 158.522 467.576 474.975
3805.77 177.799 177.68 458.798 491.147
3808.68 190.812 189.101 547.066 511.223
3811.59 198.694 186.353 527.805 558.492
3814.5 169.555 199.834 600.604 560.599
3817.42 231.253 184.544 553.387 542.108
3820.33 152.824 189.118 472.334 498.856
3823.24 183.278 183.461 470.846 495.573
3826.15 214.282 204.836 543.539 519.898
3829.06 216.949 213.878 545.31 526.655
3831.97 210.403 204.622 491.116 519.497
3834.89 186.513 191.995 522.065 496.495
3837.8 179.069 183.469 476.305 527.834
3840.71 184.826 185.477 585.131 527.871
3843.62 192.538 176.22 522.176 557.299
3846.53 151.296 162.524 564.59 522.509
3849.44 143.739 139.972 480.761 521.075
3852.36 124.88 134.834 517.874 503.484
3855.27 135.883 107.142 511.815 512.721
3858.18 60.6618 110.216 508.472 542.364
3861.09 134.104 107.581 606.806 593.772
3864 127.976 125.65 666.037 730.172
3866.91 114.871 99.2799 917.672 906.065
3869.82 54.9926 46.4395 1134.49 1072.75
3872.74 -30.5455 4.97602 1166.08 1122.04
3875.65 -9.51903 -0.77359 1065.55 1077.2
3878.56 37.7438 25.6437 999.955 941.569
3881.47 48.7064 63.433 759.203 840.625
3884.38 103.849 73.2027 762.717 721.282
3887.29 67.053 89.6196 641.926 679.903
3890.2 97.957 80.5356 635.066 605.063
3893.12 76.5968 92.9105 538.197 561.267
3896.03 104.178 102.356 510.539 535.147
3898.94 126.294 97.9339 556.705 531.489
3901.85 63.3297 83.5308 527.224 550.266
3904.76 60.9686 70.0991 566.869 564.321
3907.67 85.9989 62.1739 598.871 603.056
3910.58 39.5542 71.2397 643.43 582.457
3913.49 88.1661 83.1585 505.071 546.383
3916.41 121.755 102.084 490.648 502.841
3919.32 96.3296 110.729 512.804 542.871
3922.23 114.104 93.8854 625.161 600.445
3925.14 71.2232 73.2752 663.37 655.835
3928.05 34.499 65.2288 678.975 635.934
3930.96 89.9643 58.2343 565.455 627.465
3933.87 50.2396 66.7904 637.963 599.915
3936.78 60.1674 63.5061 596.326 618.033
3939.7 80.1112 72.263 619.81 599.547
3942.61 76.5103 77.061 582.503 592.489
3945.52 74.5613 73.2599 575.155 576.965
3948.43 68.7081 80.9095 573.237 584.684
3951.34 99.459 83.599 605.661 625.267
3954.25 82.6298 81.1463 696.904 641.24
3957.16 61.3501 69.9905 621.156 680.549
3960.07 65.9916 72.8142 723.587 684.433
3962.98 91.1009 74.4759 708.555 723.087
3965.89 66.3353 88.5323 737.119 708.01
3968.8 108.161 99.1594 678.355 702.415
3971.72 122.982 116.189 691.77 680.909
3974.63 117.424 132.247 672.601 671.007
3977.54 156.334 136.732 648.652 661.256
3980.45 136.439 158.972 662.516 639.128
3983.36 184.145 161.041 606.215 630.87
3986.27 162.541 176.869 623.879 638.923
3989.18 183.92 171.406 686.673 680.432
3992.09 167.757 191.413 730.742 757.597
3995 222.563 208.674 855.377 805.731
3997.91 235.702 238.876 831.075 834.823
4000.82 258.365 243.175 818.017 845.184
4003.73 235.458 234.953 886.46 848.809
4006.64 211.036 237.328 841.95 899.638
4009.56 265.49 254.926 970.506 929.245
4012.47 288.252 273.757 975.279 966.28
4015.38 267.53 292.102 953.055 992.148
4018.29 320.523 284.412 1048.11 1011.6
4021.2 265.183 280.882 1033.62 1041.96
4024.11 256.941 275.937 1044.15 1026.07
4027.02 305.688 287.495 1000.45 1014.27
4029.93 299.857 321.068 998.219 991.948
4032.84 357.66 345.36 977.175 956.193
4035.75 378.562 342.048 893.186 946.15
4038.66 289.921 348.11 968.089 939.046
4041.57 375.848 356.265 955.862 949.407
4044.48 403.025 416.329 924.269 949.981
4047.39 470.114 410.888 969.812 979.893
4050.3 359.526 426.221 1045.6 1044.04
4053.21 449.024 422.069 1116.7 1058.64
4056.12 457.657 455.581 1013.62 1085.43
4059.03 460.062 447.334 1125.96 1104.81
4061.94 424.284 457.701 1174.85 1144.69
4064.85 488.756 468.498 1133.25 1180.06
4067.76 492.456 458.758 1232.08 1164.09
4070.67 395.064 471.068 1126.95 1173.41
4073.58 525.686 455.63 1161.19 1160.83
4076.49 446.142 487.469 1194.35 1172.76
4079.4 490.579 491.543 1162.74 1151.35
4082.31 537.908 523.092 1096.96 1119.8
4085.22 540.788 526.151 1099.69 1103.59
4088.13 499.757 523.529 1114.12 1119.93
4091.04 530.044 525.464 1145.99 1136.27
4093.95 546.592 538.979 1148.71 1155.79
4096.86 540.303 559.138 1172.68 1190.16
4099.77 590.519 548.243 1249.1 1233.1
4102.68 513.905 519.7 1277.52 1268.39
4105.59 454.676 513.771 1278.55 1260.99
4108.5 572.732 499.262 1226.89 1229.21
4111.41 470.378 509.225 1182.2 1200.84
4114.32 484.565 491.787 1193.44 1150
4117.23 520.418 503.182 1074.36 1095.62
4120.14 504.564 493.813 1019.06 1042.65
4123.05 456.458 458.377 1034.52 1017.78
4125.96 414.109 448.907 999.746 1048.98
4128.87 476.152 439.953 1112.68 1051.82
4131.78 429.599 460.892 1043.02 1103.69
4134.69 476.926 453.124 1155.38 1105.08
4137.6 452.848 436.937 1116.85 1193.96
4140.51 381.037 408.866 1309.65 1224.04
4143.42 392.713 391.764 1245.62 1263.87
4146.33 401.543 390.408 1236.35 1287.13
4149.24 376.968 385.304 1379.42 1291.98
4152.14 377.402 372.084 1260.18 1322.86
4155.05 361.881 336.413 1328.98 1302.55
4157.96 269.958 309.136 1318.5 1290.54
4160.87 295.57 307.087 1224.15 1309.43
4163.78 355.731 315.625 1385.64 1326.88
4166.69 295.572 338.984 1370.85 1389.95
4169.6 365.65 327.366 1413.34 1412.43
4172.51 320.876 336.831 1453.08 1399.85
4175.42 323.967 317.07 1333.13 1385.56
4178.33 306.367 309.577 1370.47 1361.8
4181.24 298.398 306.469 1381.81 1392.93
4184.15 314.643 326.902 1426.52 1369.69
4187.05 367.665 345.784 1300.73 1411.55
4189.96 355.046 364.934 1507.41 1453.19
4192.87 372.092 366.791 1551.41 1470.91
4195.78 373.237 371.226 1353.91 1423.59
4198.69 368.348 382.81 1365.46 1329.77
4201.6 406.845 368.963 1269.93 1356.9
4204.51 331.697 341.145 1435.32 1401.28
4207.42 284.892 332.188 1498.58 1454.04
4210.33 379.975 329.017 1428.23 1471.4
4213.23 322.185 358.17 1487.39 1455.4
4216.14 372.349 366.619 1450.58 1470.54
4219.05 405.323 389.719 1473.65 1487.07
4221.96 391.485 399.834 1536.98 1499.78
4224.87 402.694 409.889 1488.72 1512.35
4227.78 435.487 414.194 1511.37 1470.76
4230.69 404.401 407.497 1412.18 1499.26
4233.6 382.604 401.259 1574.24 1479.76
4236.5 416.772 417.236 1452.87 1482.76
4239.41 452.331 433.211 1421.17 1465.45
4242.32 430.529 408.2 1522.31 1488.11
4245.23 341.741 363.661 1520.84 1435.74
4248.14 318.712 338.954 1264.07 1401.5
4251.05 356.41 359.941 1419.58 1322.38
4253.95 404.7 401.647 1283.48 1347.85
4256.86 443.832 414.141 1340.49 1319.55
4259.77 393.89 415.448 1334.68 1311.08
4262.68 408.623 403.533 1258.08 1250.81
4265.59 408.085 410.993 1159.67 1244.54
4268.49 416.271 421.064 1315.88 1271.66
4271.4 438.834 423.709 1339.42 1352.07
4274.31 416.022 452.964 1400.9 1384.66
4277.22 504.038 432.692 1413.65 1414.52
4280.13 378.015 440.239 1429.01 1430.05
4283.03 438.665 395.844 1447.49 1470.99
4285.94 370.851 401.415 1536.47 1497.43
4288.85 394.73 400.814 1508.35 1506.53
4291.76 436.862 411.997 1474.76 1516.82
4294.67 404.398 450.95 1567.35 1528.31
4297.57 511.59 448.345 1542.81 1544.82
4300.48 429.046 477.104 1524.3 1554.11
4303.39 490.676 469.057 1595.21 1586.81
4306.3 487.45 498.804 1640.93 1590.86
4309.2 518.288 513.646 1536.43 1599.36
4312.11 535.2 533.077 1620.71 1549.67
4315.02 545.743 535.943 1491.88 1582.51
4317.93 526.886 527.016 1634.94 1574.73
4320.83 508.419 532.24 1597.37 1648.45
4323.74 561.415 533.345 1713.04 1636.02
4326.65 530.201 526.096 1597.66 1675.83
4329.56 486.672 511.476 1716.78 1683.24
4332.46 517.553 523.744 1735.3 1712.87
4335.37 567.007 546.618 1686.54 1713.66
4338.28 555.293 570.863 1719.15 1682.27
4341.19 590.29 587.598 1641.13 1691.81
4344.09 617.21 570.742 1715.15 1700.76
4347 504.725 581.212 1746.02 1721.07
4349.91 621.7 577.866 1702.06 1734.27
4352.81 607.173 606.696 1754.75 1718.78
4355.72 591.215 593.999 1699.55 1733.2
4358.63 583.609 535.811 1745.32 1714.81
4361.54 432.609 493.418 1699.57 1725.69
4364.44 464.037 484.61 1732.18 1716.84
4367.35 557.186 501.103 1718.79 1719.37
4370.26 482.087 505.627 1707.13 1737.84
4373.16 477.608 546.652 1787.59 1785.07
4376.07 680.259 575.35 1860.5 1801.67
4378.98 568.182 603.181 1756.92 1829.17
4381.88 561.101 564.476 1870.1 1797.63
4384.79 564.147 560.176 1765.87 1812.51
4387.7 555.28 551.009 1801.56 1776.78
4390.6 533.599 543.56 1762.9 1807.56
4393.51 541.802 541.989 1858.23 1808.96
4396.42 550.565 550.383 1805.76 1802.27
4399.32 558.783 549.865 1742.81 1786.22
4402.23 540.247 529.758 1810.1 1798.94
4405.14 490.244 521.344 1843.9 1804.2
4408.04 533.542 518.851 1758.6 1773.77
4410.95 532.767 530.121 1718.8 1759.8
4413.85 524.053 538.342 1802.01 1780.75
4416.76 558.207 507.518 1821.45 1811.33
4419.67 440.294 498.495 1810.54 1810.22
4422.57 496.983 436.052 1798.67 1823.29
4425.48 370.879 452.078 1860.65 1826.77
4428.39 488.371 416.171 1820.98 1830.69
4431.29 389.264 472.368 1810.43 1821.18
4434.2 539.469 480.922 1832.13 1814.7
4437.1 514.034 519.813 1801.55 1812.95
4440.01 505.935 504.719 1805.18 1787.79
4442.92 494.186 465.305 1756.66 1775.59
4445.82 395.793 500.696 1764.94 1774.05
4448.73 612.108 499.519 1800.55 1808.98
4451.63 490.657 559.991 1861.46 1803.72
4454.54 577.209 534.739 1749.14 1816.62
4457.44 536.35 527.196 1839.26 1789.43
4460.35 468.028 491.017 1779.89 1782.64
4463.25 468.673 460.677 1728.77 1749.67
4466.16 445.33 428.088 1740.35 1703.35
4469.07 370.262 433.87 1640.94 1711.47
4471.97 486.019 447.751 1753.11 1678.1
4474.88 486.972 473.568 1640.25 1703.55
4477.78 447.713 463.031 1717.3 1667.97
4480.69 454.409 452.689 1646.37 1734.55
4483.59 455.944 431.544 1839.97 1754.02
4486.5 384.281 435.241 1775.73 1785.04
4489.4 465.498 422.995 1739.43 1734.51
4492.31 419.206 384.821 1688.38 1691.02
4495.21 269.758 376.107 1645.25 1670.67
4498.12 439.355 373.963 1678.37 1658.04
4501.02 412.775 368.494 1650.49 1690.84
4503.93 253.352 328.086 1743.67 1679.24
4506.83 318.132 306.268 1643.55 1681.88
4509.74 347.32 298.493 1658.43 1720.97
4512.64 230.027 295.692 1860.94 1739.03
4515.55 309.73 294.845 1697.73 1756.43
4518.45 344.778 332.672 1710.62 1686.14
4521.36 343.508 327.426 1650.08 1661.64
4524.26 293.991 314.601 1624.23 1628.88
4527.17 306.305 303.788 1612.31 1650.53
4530.07 311.068 300.649 1715.04 1661.43
4532.97 284.573 293.732 1656.94 1680.89
4535.88 285.556 269.613 1670.69 1718.9
4538.78 238.71 243.25 1829.07 1762.51
4541.69 205.486 228.919 1787.77 1779.09
4544.59 242.561 236.673 1720.44 1747.62
4547.5 261.972 248.744 1734.66 1744.65
4550.4 241.699 251.578 1778.86 1759.3
4553.3 251.064 239.08 1764.38 1756.95
4556.21 224.478 239.815 1727.62 1728.59
4559.11 243.902 219.887 1693.76 1707.38
4562.02 191.282 250.456 1700.77 1710.38
4564.92 316.185 237.32 1736.59 1700.52
4567.82 204.493 276.288 1664.19 1713.48
4570.73 308.187 263.593 1739.66 1728.2
4573.63 278.098 225.354 1780.75 1758.14
4576.54 89.7787 193.097 1754.01 1749.71
4579.44 211.414 194.223 1714.37 1727.54
4582.34 281.476 248.379 1714.23 1773.26
4585.25 252.247 257.657 1891.17 1803.33
4588.15 239.246 227.232 1804.61 1821.1
4591.05 190.203 203.761 1767.53 1809.82
4593.96 181.835 217.913 1857.33 1815.68
4596.86 281.702 243.598 1822.18 1829.7
4599.76 267.256 283.541 1809.58 1854.63
4602.67 301.664 278.777 1932.13 1901.51
4605.57 267.41 293.389 1962.81 1927.47
4608.47 311.093 324.957 1887.48 1914.33
4611.38 396.368 332.853 1892.7 1886.11
4614.28 291.097 344.112 1878.14 1914.12
4617.18 344.872 324.369 1971.5 1898.98
4620.09 337.139 310.78 1847.31 1892.98
4622.99 250.33 314.12 1860.14 1913.23
4625.89 354.89 319.545 2032.23 1955.53
4628.8 353.415 336.767 1974.23 2016.61
4631.7 301.997 325.198 2043.39 1981.42
4634.6 320.183 341.89 1926.64 1956.47
4637.5 403.49 340.793 1899.38 1869.07
4640.41 298.706 373.117 1781.18 1852.24
4643.31 417.154 390.612 1876.16 1813.12
4646.21 455.978 454.993 1782.01 1913.97
4649.11 491.846 486.278 2083.73 1964.97
4652.02 511.01 487.198 2029.18 2024.12
4654.92 458.738 477.865 1959.45 2006.91
4657.82 463.846 453.113 2032.12 2037.69
4660.72 436.754 462.449 2121.52 2119.82
4663.63 486.746 492.215 2205.83 2157.67
4666.53 553.144 518.498 2145.67 2186.16
4669.43 515.603 532.547 2206.98 2117.89
4672.33 528.892 533.943 2001.01 2162.73
4675.23 557.334 576.227 2280.21 2134.03
4678.14 642.456 592.818 2120.88 2211.72
4681.04 578.664 626.919 2234.07 2219.75
4683.94 659.636 616.094 2304.31 2265.92
4686.84 609.983 659.731 2259.38 2269.26
4689.74 709.576 693.883 2244.09 2259.49
4692.65 762.089 699.6 2274.99 2269.35
4695.55 627.136 703.741 2288.97 2255.01
4698.45 721.998 711.753 2201.07 2288.96
4701.35 786.126 767.553 2376.83 2324.56
4704.25 794.535 758.65 2395.79 2306.43
4707.15 695.289 755.144 2146.68 2286.87
4710.05 775.609 788.949 2318.14 2283.41
4712.96 895.948 849.042 2385.41 2363.13
4715.86 875.569 846.088 2385.84 2402.9
4718.76 766.747 848.941 2437.45 2392.27
4721.66 904.508 880.257 2353.52 2428.16
4724.56 969.517 880.069 2493.51 2411.28
4727.46 766.184 895.026 2386.81 2410.51
4730.36 949.377 879.433 2351.2 2395.25
4733.26 922.737 949.581 2447.74 2445.6
4736.16 976.628 945.539 2537.86 2494.86
4739.07 937.253 925.136 2498.99 2493.14
4741.97 861.526 900.648 2442.57 2464.21
4744.87 903.165 919.788 2451.08 2469.14
4747.77 994.673 965.456 2513.76 2499.87
4750.67 998.53 1005.86 2534.77 2499.28
4753.57 1024.37 1010.85 2449.31 2502.06
4756.47 1009.65 968.936 2522.09 2534.78
4759.37 872.791 919.326 2632.94 2534.08
4762.27 875.541 914.417 2447.21 2515.71
4765.17 994.917 966.264 2466.98 2472.93
4768.07 1028.34 1012.5 2504.59 2472.08
4770.97 1014.26 963.106 2444.68 2460.11
4773.87 846.724 968.452 2431.06 2495.99
4776.77 1044.37 997.642 2612.24 2508.5
4779.67 1101.83 1075.32 2482.2 2561.17
4782.57 1079.75 1085.64 2589.06 2528.85
4785.47 1075.34 1034.35 2515.29 2523
4788.37 947.959 998.801 2464.67 2516.2
4791.27 973.103 987.191 2568.65 2552.08
4794.17 1040.51 968.829 2622.9 2556.65
4797.07 892.87 966.984 2478.39 2508.09
4799.97 967.57 908.628 2422.98 2476.46
4802.87 865.443 908.525 2528.03 2498.4
4805.77 892.561 873.123 2544.2 2487.78
4808.67 861.364 904.183 2391.12 2464.83
4811.57 958.624 900.191 2459.17 2459.48
4814.47 880.586 885.598 2528.14 2501.34
4817.37 817.585 850.098 2516.7 2460.6
4820.27 852.124 833.691 2336.97 2500.87
4823.16 831.363 758.086 2648.94 2476.56
4826.06 590.77 675.594 2443.78 2506.44
4828.96 604.647 646.924 2426.59 2424.24
4831.86 745.355 696.299 2402.36 2414.32
4834.76 738.895 713.394 2414.02 2395.71
4837.66 655.932 665.898 2370.76 2361.16
4840.56 602.867 644.837 2298.69 2411.73
4843.46 675.713 643.903 2565.72 2434.19
4846.36 653.128 594.94 2438.17 2471.76
4849.25 455.979 567.663 2411.38 2392.34
4852.15 593.882 562.147 2327.46 2372.89
4855.05 636.581 553.592 2379.84 2317.88
4857.95 430.313 540.319 2246.35 2309.07
4860.85 554.064 513.563 2301.03 2277.73
4863.75 556.313 544.655 2285.82 2291.79
4866.64 523.588 547.298 2288.52 2313.3
4869.54 561.993 532.659 2365.56 2318.38
4872.44 512.396 522.181 2301.07 2363.35
4875.34 492.155 468.609 2423.43 2340.23
4878.24 401.277 445.906 2296.18 2310.65
4881.13 444.285 400.602 2212.33 2277.56
4884.03 356.244 419.314 2324.18 2280.51
4886.93 457.413 446.697 2305.02 2242.07
4889.83 526.436 507.308 2097.01 2246.47
4892.73 538.074 508.953 2337.37 2273.89
4895.62 462.348 466.432 2387.3 2310.67
4898.52 398.873 380.977 2207.33 2295.87
4901.42 281.709 315.796 2293 2280.32
4904.32 266.806 273.987 2340.63 2295.35
4907.21 273.446 306.38 2252.41 2293.34
4910.11 378.887 277.996 2286.98 2259.28
4913.01 181.655 269.642 2238.44 2246.12
4915.9 248.383 214.979 2212.93 2222.78
4918.8 214.9 268.493 2216.97 2293.18
4921.7 342.195 291.059 2449.62 2296.44
4924.6 316.082 325.988 2222.72 2268.34
4927.49 319.687 313.545 2132.67 2179.21
4930.39 304.866 290.723 2182.23 2211.23
4933.29 247.615 241.03 2318.78 2266.1
4936.18 170.609 245.945 2297.28 2314.24
4939.08 319.61 269.406 2326.66 2286.9
4941.98 317.998 319.279 2236.77 2303.79
4944.87 320.23 352.909 2347.93 2274.7
4947.77 420.5 360.263 2239.39 2244.84
4950.66 340.057 369.017 2147.21 2269.47
4953.56 346.493 327.119 2421.8 2301.45
4956.46 294.808 332.916 2335.34 2414.29
4959.35 357.448 341.06 2485.73 2393.18
4962.25 370.924 352.615 2358.48 2433.83
4965.15 329.472 359.487 2457.28 2395.96
