wavelength spec_sum spec_optimal
3526.2 0.274537 64.5102
3529.11 -0.345828 57.0616
3532.03 -1.36062 80.9926
3534.94 5.71317 73.9673
3537.85 -0.257163 86.1998
3540.76 1.45006 58.6782
3543.68 -10.8883 66.1293
3546.59 -0.319121 73.8645
3549.5 8.78951 68.7347
3552.41 3.73418 43.4953
3555.33 -0.979648 73.6577
3558.24 6.27571 89.047
3561.15 7.86168 84.9158
3564.06 -0.0149528 72.6042
3566.97 2.92144 82.5812
3569.89 0.911976 82.3669
3572.8 2.43798 87.421
3575.71 -2.08923 69.059
3578.62 0.311536 91.392
3581.54 0.422921 87.4493
3584.45 -6.34763 82.2229
3587.36 8.12568 72.8372
3590.27 5.48395 91.9393
3593.19 0.944728 79.2681
3596.1 -2.14737 72.1653
3599.01 4.20682 75.4969
3601.92 9.51444 81.5447
3604.83 7.55694 70.4997
3607.75 9.2222 74.073
3610.66 -3.0567 78.543
3613.57 9.09729 76.8565
3616.48 2.80034 85.5823
3619.4 7.92261 60.205
3622.31 9.30269 77.2847
3625.22 11.2852 78.3459
3628.13 3.1494 76.1537
3631.05 12.7902 71.7772
3633.96 11.4711 84.5257
3636.87 7.282 89.3356
3639.78 12.4561 82.6407
3642.69 16.0581 78.002
3645.61 14.2796 85.7574
3648.52 10.3216 86.0831
3651.43 9.65036 98.2823
3654.34 12.9319 66.6213
3657.26 15.2185 67.8534
3660.17 20.6527 80.611
3663.08 10.2964 68.8417
3665.99 15.442 86.6155
3668.9 15.8814 75.2503
3671.82 12.1429 72.5002
3674.73 5.58772 79.5971
3677.64 9.45168 70.4945
3680.55 13.9166 85.7905
3683.47 16.015 97.7247
3686.38 18.7574 80.9852
3689.29 10.5398 75.3297
3692.2 20.8037 73.0244
3695.11 22.3101 66.5165
3698.03 16.2692 77.3023
3700.94 11.2083 81.5418
3703.85 14.4247 82.3865
3706.76 18.534 75.7597
3709.67 14.8377 96.7838
3712.59 17.8273 75.1662
3715.5 15.4281 79.18
3718.41 20.2612 78.5843
3721.32 17.4255 74.2027
3724.24 22.0786 74.4951
3727.15 19.3854 75.3959
3730.06 20.7732 80.6238
3732.97 15.2915 82.8221
3735.88 23.5559 72.2468
3738.8 24.2807 83.9725
3741.71 14.0392 82.1641
3744.62 15.4122 72.1132
3747.53 17.9763 95.3092
3750.44 16.6321 75.1083
3753.36 13.1179 95.3952
3756.27 19.9669 73.2778
3759.18 18.7433 95.9859
3762.09 19.45 72.0278
3765 16.303 79.5353
3767.92 14.752 84.006
3770.83 15.198 93.212
3773.74 21.8861 91.4047
3776.65 17.6968 85.5681
3779.56 14.2924 75.6776
3782.47 25.9974 86.2845
3785.39 24.5304 95.7582
3788.3 23.9383 86.6143
3791.21 30.5004 93.978
3794.12 32.8823 96.8715
3797.03 28.8315 100.938
3799.95 23.5975 98.6363
3802.86 28.8271 91.5823
3805.77 30.8771 88.9606
3808.68 32.8236 105.008
3811.59 33.8556 100.291
3814.5 28.6165 112.974
3817.42 38.6581 103.042
3820.33 25.3054 87.0672
3823.24 30.0616 85.9247
3826.15 34.8162 98.2025
3829.06 34.9195 97.5463
3831.97 33.5506 86.9869
3834.89 29.4652 91.5613
3837.8 28.0298 82.7254
3840.71 28.6679 100.649
3843.62 29.5953 88.9649
3846.53 23.0488 95.2846
3849.44 21.7049 80.3811
3852.36 18.6928 85.7866
3855.27 20.1655 84.0128
3858.18 8.92641 82.7164
3861.09 19.5695 97.8418
3864 18.5226 106.459
3866.91 16.4924 145.427
3869.82 7.83331 178.278
3872.74 -4.3173 181.726
3875.65 -1.33525 164.717
3878.56 5.25526 153.352
3881.47 6.73253 115.525
3884.38 14.2529 115.173
3887.29 9.13876 96.2067
3890.2 13.2596 94.4772
3893.12 10.2986 79.4841
3896.03 13.9148 74.862
3898.94 16.7597 81.0586
3901.85 8.35064 76.2355
3904.76 7.98899 81.4096
3907.67 11.1993 85.4276
3910.58 5.11972 91.1753
3913.49 11.3434 71.101
3916.41 15.572 68.6223
3919.32 12.2482 71.2624
3922.23 14.4244 86.3266
3925.14 8.95224 91.029
3928.05 4.31176 92.5924
3930.96 11.1809 76.6374
3933.87 6.2092 85.9372
3936.78 7.39521 79.8422
3939.7 9.79245 82.486
3942.61 9.30144 77.058
3945.52 9.01548 75.6341
3948.43 8.26304 74.9364
3951.34 11.8971 78.7093
3954.25 9.8313 90.0363
3957.16 7.26062 79.7818
3960.07 7.76853 92.3977
3962.98 10.6677 89.9539
3965.89 7.72679 93.0394
3968.8 12.5324 85.1287
3971.72 14.1747 86.3112
3974.63 13.4632 83.4378
3977.54 17.8308 80.0058
3980.45 15.4804 81.2482
3983.36 20.7841 73.9187
3986.27 18.2501 75.6381
3989.18 20.5429 82.7758
3992.09 18.64 87.5854
3995 24.6009 101.939
3997.91 25.9175 98.477
4000.82 28.2614 96.376
4003.73 25.6214 103.843
4006.64 22.844 98.064
4009.56 28.5877 112.387
4012.47 30.8762 112.292
4015.38 28.5063 109.102
4018.29 33.9735 119.292
4021.2 27.9599 116.964
4024.11 26.9481 117.472
4027.02 31.8915 111.904
4029.93 31.1183 111.008
4032.84 36.9215 108.04
4035.75 38.874 98.184
4038.66 29.6158 105.806
4041.57 38.1933 103.871
4044.48 40.7428 99.8658
4047.39 47.2803 104.193
4050.3 35.9734 111.703
4053.21 44.7007 118.633
4056.12 45.3313 107.086
4059.03 45.343 118.302
4061.94 41.6113 122.769
4064.85 47.7016 117.787
4067.76 47.8325 127.38
4070.67 38.1916 115.902
4073.58 50.5828 118.808
4076.49 42.7326 121.58
4079.4 46.7778 117.771
4082.31 51.0646 110.563
4085.22 51.1162 110.303
4088.13 47.0381 111.223
4091.04 49.6826 113.875
4093.95 51.027 113.628
4096.86 50.2412 115.485
4099.77 54.699 122.476
4102.68 47.4221 124.727
4105.59 41.8002 124.302
4108.5 52.4598 118.782
4111.41 42.9275 113.982
4114.32 44.062 114.593
4117.23 47.1513 102.736
4120.14 45.5497 97.0481
4123.05 41.0576 98.1152
4125.96 37.1126 94.4251
4128.87 42.5159 104.654
4131.78 38.2163 97.6882
4134.69 42.2661 107.75
4137.6 39.9781 103.705
4140.51 33.5067 121.071
4143.42 34.3952 114.634
4146.33 35.0244 113.259
4149.24 32.7426 125.772
4152.14 32.6393 114.349
4155.05 31.158 119.997
4157.96 23.1372 118.448
4160.87 25.2129 109.399
4163.78 30.1973 123.168
4166.69 24.9645 121.182
4169.6 30.7237 124.23
4172.51 26.8185 126.983
4175.42 26.93 115.812
4178.33 25.3264 118.341
4181.24 24.5297 118.596
4184.15 25.7189 121.683
4187.05 29.8824 110.271
4189.96 28.6918 127.003
4192.87 29.8974 129.903
4195.78 29.8182 112.667
4198.69 29.2604 112.933
4201.6 32.1364 104.394
4204.51 26.0544 117.281
4207.42 22.2549 121.725
4210.33 29.5219 115.335
4213.23 24.8997 119.429
4216.14 28.6274 115.823
4219.05 31.0052 117.025
4221.96 29.7999 121.41
4224.87 30.5079 116.996
4227.78 32.8417 118.191
4230.69 30.364 109.912
4233.6 28.6076 121.972
4236.5 31.0395 112.087
4239.41 33.5622 109.196
4242.32 31.8327 116.521
4245.23 25.1847 115.989
4248.14 23.4148 96.0773
4251.05 26.1077 107.549
4253.95 29.5631 96.9396
4256.86 32.3363 100.948
4259.77 28.6255 100.228
4262.68 29.6245 94.2187
4265.59 29.5167 86.6198
4268.49 30.0409 98.0357
4271.4 31.5993 99.5373
4274.31 29.8915 103.846
4277.22 36.1374 104.53
4280.13 27.0437 105.402
4283.03 31.3148 106.496
4285.94 26.4156 112.753
4288.85 28.0533 110.399
4291.76 30.9759 107.649
4294.67 28.6055 114.087
4297.57 36.0984 111.976
4300.48 30.1956 110.297
4303.39 34.4393 115.062
4306.3 34.1153 117.966
4309.2 36.1649 110.068
4312.11 37.2264 115.677
4315.02 37.8329 106.069
4317.93 36.3979 115.77
4320.83 34.995 112.637
4323.74 38.4978 120.27
4326.65 36.2172 111.672
4329.56 33.1127 119.454
4332.46 35.073 120.189
4335.37 38.2681 116.267
4338.28 37.3236 117.959
4341.19 39.512 112.074
4344.09 41.1436 116.578
4347 33.5063 118.118
4349.91 41.1021 114.606
4352.81 39.9787 117.609
4355.72 38.7714 113.39
4358.63 38.1211 115.922
4361.54 28.1482 112.388
4364.44 30.079 114.056
4367.35 35.9839 112.705
4370.26 31.0229 111.491
4373.16 30.6295 116.298
4376.07 43.4822 120.595
4378.98 36.2044 113.483
4381.88 35.6476 120.396
4384.79 35.7415 113.334
4387.7 35.0884 115.292
4390.6 33.637 112.517
4393.51 34.0769 118.306
4396.42 34.5549 114.699
4399.32 35.0016 110.461
4402.23 33.7778 114.492
4405.14 30.5981 116.407
4408.04 33.246 110.823
4410.95 33.1461 108.129
4413.85 32.5559 113.179
4416.76 34.6286 114.22
4419.67 27.2766 113.363
4422.57 30.748 112.453
4425.48 22.9163 116.157
4428.39 30.1376 113.514
4431.29 23.9913 112.69
4434.2 33.2065 113.871
4437.1 31.6002 111.799
4440.01 31.0613 111.847
4442.92 30.2989 108.661
4445.82 24.2323 108.985
4448.73 37.4212 110.981
4451.63 29.9504 114.516
4454.54 35.1765 107.386
4457.44 32.6307 112.674
4460.35 28.4225 108.784
4463.25 28.4075 105.403
4466.16 26.9387 105.837
4469.07 22.351 99.525
4471.97 29.2753 106.035
4474.88 29.2668 98.9242
4477.78 26.845 103.267
4480.69 27.1813 98.7026
4483.59 27.2061 109.97
4486.5 22.8721 105.797
4489.4 27.6347 103.305
4492.31 24.8208 99.9496
4495.21 15.9292 97.0802
4498.12 25.8728 98.7097
4501.02 24.24 96.7514
4503.93 14.8359 101.876
4506.83 18.5761 95.7114
4509.74 20.2217 96.2606
4512.64 13.3536 107.663
4515.55 17.9274 97.9026
4518.45 19.8968 98.3306
4521.36 19.7641 94.5504
4524.26 16.8643 92.7802
4527.17 17.5175 91.8174
4530.07 17.7361 97.376
4532.97 16.1763 93.8024
4535.88 16.183 94.3092
4538.78 13.4875 102.96
4541.69 11.5755 100.356
4544.59 13.6238 96.3127
4547.5 14.6712 96.846
4550.4 13.4972 99.0484
4553.3 13.9811 97.9815
4556.21 12.4665 95.6857
4559.11 13.5094 93.5629
4562.02 10.5677 93.7013
4564.92 17.4253 95.4214
4567.82 11.2434 91.1998
4570.73 16.9066 95.0789
4573.63 15.2237 97.0608
4576.54 4.9049 95.3401
4579.44 11.5289 92.9261
4582.34 15.3235 92.6556
4585.25 13.7111 101.924
4588.15 12.9865 96.9732
4591.05 10.312 94.6958
4593.96 9.84819 99.2004
4596.86 15.2443 97.0172
4599.76 14.4534 96.036
4602.67 16.3073 102.2
4605.57 14.4525 103.47
4608.47 16.8131 99.155
4611.38 21.4253 99.0784
4614.28 15.7403 97.9664
4617.18 18.6571 102.467
4620.09 18.2503 95.6659
4622.99 13.5614 95.9835
4625.89 19.2427 104.487
4628.8 19.1815 101.142
4631.7 16.4082 104.317
4634.6 17.4161 98.0153
4637.5 21.9738 96.2994
4640.41 16.2877 90.005
4643.31 22.7755 94.4973
4646.21 24.9275 89.4736
4649.11 26.9234 104.306
4652.02 28.0088 101.28
4654.92 25.1758 97.5297
4657.82 25.4876 100.883
4660.72 24.0274 105.062
4663.63 26.8078 108.988
4666.53 30.4965 105.793
4669.43 28.4537 108.609
4672.33 29.2116 98.3067
4675.23 30.8047 111.858
4678.14 35.5304 103.911
4681.04 32.0168 109.341
4683.94 36.5082 112.679
4686.84 33.7657 110.401
4689.74 39.2795 109.587
4692.65 42.181 111.039
4695.55 34.7017 111.673
4698.45 39.9333 107.344
4701.35 43.4544 115.876
4704.25 43.886 116.761
4707.15 38.3689 104.583
4710.05 42.7549 112.892
4712.96 49.3265 116.115
4715.86 48.1359 116.073
4718.76 42.0859 118.507
4721.66 49.5595 114.337
4724.56 53.018 121.024
4727.46 41.8096 115.716
4730.36 51.6867 113.84
4733.26 50.1112 118.332
4736.16 52.896 122.47
4739.07 50.6177 120.346
4741.97 46.3862 117.354
4744.87 48.4708 117.451
4747.77 53.1991 120.096
4750.67 53.2129 120.7
4753.57 54.3851 116.211
4756.47 53.3962 119.205
4759.37 45.9756 123.94
4762.27 45.9355 114.712
4765.17 51.9878 115.138
4768.07 53.5176 116.377
4770.97 52.5737 113.086
4773.87 43.7168 111.954
4776.77 53.7141 119.764
4779.67 56.4584 113.306
4782.57 55.129 117.68
4785.47 54.717 113.857
4788.37 48.081 111.127
4791.27 49.2096 115.385
4794.17 52.4754 117.413
4797.07 44.9199 110.591
4799.97 48.5744 107.809
4802.87 43.3695 112.2
4805.77 44.6645 112.678
4808.67 43.0584 105.718
4811.57 47.8903 108.591
4814.47 43.9837 111.552
4817.37 40.8487 111.021
4820.27 42.608 103.127
4823.16 41.6237 117
4826.06 29.6302 108.093
4828.96 30.3927 107.539
4831.86 37.5617 106.716
4834.76 37.3444 107.528
4837.66 33.2575 105.926
4840.56 30.6723 103.052
4843.46 34.504 115.439
4846.36 33.4777 110.117
4849.25 23.4636 109.336
4852.15 30.6814 105.956
4855.05 33.0187 108.782
4857.95 22.4083 103.097
4860.85 28.9645 106.028
4863.75 29.1911 105.735
4866.64 27.5716 106.25
4869.54 29.6925 110.207
4872.44 27.1545 107.542
4875.34 26.1525 113.581
4878.24 21.3727 107.878
4881.13 23.7076 104.143
4884.03 19.0358 109.567
4886.93 24.4622 108.759
4889.83 28.1601 98.969
4892.73 28.7708 110.265
4895.62 24.6951 112.493
4898.52 21.2685 103.826
4901.42 14.9868 107.596
4904.32 14.1541 109.505
4907.21 14.4587 105.013
4910.11 19.9594 106.206
4913.01 9.5301 103.501
4915.9 12.9732 101.844
4918.8 11.1713 101.521
4921.7 17.7002 111.587
4924.6 16.2652 100.7
4927.49 16.3637 96.0821
4930.39 15.5208 97.7545
4933.29 12.5373 103.273
4936.18 8.59117 101.727
4939.08 16.0066 102.436
4941.98 15.8403 97.9195
4944.87 15.8677 102.217
4947.77 20.7296 96.9647
4950.66 16.6817 92.4912
4953.56 16.9175 103.801
4956.46 14.3302 99.6258
4959.35 17.3034 105.579
4962.25 17.8876 99.7713
4965.15 15.8343 103.573
4968.04 18.1148 99.6628
4970.94 21.2942 94.9547
4973.83 19.5308 100.124
4976.73 17.8658 102.973
4979.62 16.4136 100.815
4982.52 16.1798 96.877
4985.42 12.8016 104.091
4988.31 11.9389 95.0382
4991.21 16.7713 95.5106
4994.1 15.7975 98.2983
4997 18.3628 96.779
4999.89 14.5875 100.276
5002.79 14.7929 94.5227
5005.68 13.3274 97.6448
5008.58 18.2551 95.6729
5011.47 16.2024 93.6634
5014.37 17.7661 94.7057
5017.26 17.8845 95.7879
5020.16 15.466 97.6536
5023.05 14.4918 88.7882
5025.95 16.361 98.0712
5028.84 14.727 98.5438
5031.73 15.5512 96.7185
5034.63 14.0604 95.3392
5037.52 18.167 91.4766
5040.42 10.6341 88.853
5043.31 14.9969 93.939
5046.21 14.5895 100.894
5049.1 10.8025 113.712
5051.99 16.3874 118.946
5054.89 13.8196 113.932
5057.78 20.2612 107.198
5060.67 15.0894 94.8899
5063.57 19.1016 98.08
5066.46 18.8713 101.844
5069.36 16.1765 96.4339
5072.25 23.658 94.4639
5075.14 22.4988 89.4052
5078.04 18.8344 94.5479
5080.93 22.6945 92.1761
5083.82 24.2366 98.3037
5086.72 25.0998 92.7571
5089.61 22.8169 90.1614
5092.5 26.6791 96.1847
5095.39 26.9678 97.2368
5098.29 27.473 96.0411
5101.18 30.3343 100.196
5104.07 24.0402 101.836
5106.96 28.8888 92.3489
5109.86 31.8736 95.7678
5112.75 26.0449 94.2755
5115.64 30.8067 99.3074
5118.53 30.3248 102.42
5121.43 31.9266 97.0051
5124.32 29.0696 104.523
5127.21 25.8753 98.5026
5130.1 31.4775 99.5128
5132.99 30.7216 98.4924
5135.89 23.5096 94.3552
5138.78 25.7276 106.633
5141.67 30.4362 100.575
5144.56 20.6173 99.8731
5147.45 25.1798 102.2
5150.34 21.6722 103.175
5153.23 22.7874 106.802
5156.13 21.9592 106.089
5159.02 20.6396 98.4362
5161.91 22.9359 94.8568
5164.8 16.6895 96.2917
5167.69 19.6775 105.09
5170.58 17.3361 86.9125
5173.47 14.143 89.0092
5176.36 19.8409 93.8653
5179.25 19.28 90.183
5182.14 20.5279 90.3746
5185.03 14.1705 93.8514
5187.92 18.3483 90.148
5190.82 19.4453 95.3796
5193.71 20.1895 93.338
5196.6 18.1561 108.883
5199.49 14.5525 106.633
5202.38 11.7753 114.556
5205.27 10.8199 117.31
5208.16 12.2781 109.938
5211.05 18.8679 104.039
5213.94 15.7243 93.5686
5216.82 17.9633 106.751
5219.71 17.3807 93.0914
5222.6 13.6376 91.5564
5225.49 12.232 94.8105
5228.38 18.313 86.7034
5231.27 19.8421 89.3289
5234.16 19.807 99.1165
5237.05 19.8215 82.0705
5239.94 19.8042 89.8331
5242.83 19.7193 93.0834
5245.72 16.0981 92.8419
5248.61 20.7713 89.7173
5251.49 21.9647 92.4692
5254.38 24.0359 90.3821
5257.27 22.1475 95.9538
5260.16 14.0341 88.5637
5263.05 22.6276 93.278
5265.94 23.6939 91.7935
5268.82 16.5408 88.4283
5271.71 16.756 95.8292
5274.6 16.5868 91.4105
5277.49 24.0517 89.9536
5280.38 21.1575 86.8896
5283.26 23.0503 94.3291
5286.15 23.2458 92.4525
5289.04 22.0977 91.6298
5291.93 26.0982 95.0418
5294.81 24.6459 98.4504
5297.7 22.2013 91.4743
5300.59 22.9301 89.4107
5303.48 19.5034 91.0175
5306.36 24.9505 95.8429
5309.25 17.0815 90.1446
5312.14 24.8901 92.1143
5315.02 22.8893 94.5012
5317.91 18.8775 95.7406
5320.8 27.1987 91.6087
5323.68 23.5438 91.5782
5326.57 24.4182 95.2486
5329.46 25.6397 94.5796
5332.34 26.8701 97.3188
5335.23 28.4407 94.4319
5338.11 26.8101 84.6533
5341 30.0691 97.954
5343.89 27.1298 91.4747
5346.77 26.2643 101.04
5349.66 24.7152 99.5202
5352.54 31.0955 94.272
5355.43 30.0343 97.001
5358.32 33.9064 92.5008
5361.2 26.9427 97.6339
5364.09 33.1478 92.5613
5366.97 35.5066 95.9199
5369.86 37.3111 93.609
5372.74 37.2721 89.4411
5375.63 35.879 95.5718
5378.51 36.8709 96.893
5381.4 36.5599 98.0087
5384.28 36.9362 94.0697
5387.17 37.1375 92.2123
5390.05 40.7161 97.7499
5392.94 39.4322 102.096
5395.82 35.8248 97.6076
5398.7 40.5014 101.437
5401.59 37.1771 97.7155
5404.47 39.4762 101.007
5407.36 32.4933 101.304
5410.24 39.76 98.9934
5413.12 37.9006 102.349
5416.01 37.1903 100.453
5418.89 39.2234 99.2881
5421.78 36.1497 103.143
5424.66 35.9569 108.837
5427.54 33.5736 101.106
5430.43 40.0755 103.113
5433.31 39.6179 103.248
5436.19 40.5224 95.3861
5439.07 43.5986 102.341
5441.96 36.7128 99.6998
5444.84 39.8405 97.0782
5447.72 42.4985 102.739
5450.61 42.0379 103.339
5453.49 40.5045 101.108
5456.37 39.4171 97.7404
5459.25 38.7691 97.2006
5462.14 38.4694 103.424
5465.02 41.1315 100.611
5467.9 38.3868 98.6471
5470.78 40.995 102.662
5473.66 39.5272 91.6788
5476.55 37.9914 94.9659
5479.43 37.3988 100.328
5482.31 38.3774 101.033
5485.19 36.7087 101.028
5488.07 34.0336 92.7085
5490.95 35.5545 96.0792
5493.84 25.4555 92.6921
5496.72 28.5928 98.8766
5499.6 30.5462 96.9839
5502.48 30.9162 94.7052
5505.36 32.2842 93.853
5508.24 28.9752 97.8684
5511.12 27.4736 90.3741
5514 19.2592 99.2954
5516.88 31.0586 93.961
5519.76 27.4971 95.4809
5522.64 23.2235 96.9572
5525.52 28.4773 95.887
5528.4 28.0996 92.2972
5531.28 27.1733 88.1025
5534.16 31.8711 88.4927
5537.04 21.0197 94.4406
5539.92 22.8813 91.216
5542.8 25.9128 91.3214
5545.68 28.2833 87.9617
5548.56 28.0076 95.0866
5551.44 27.5991 87.7493
5554.32 23.0812 91.8264
5557.2 30.9737 98.3235
5560.08 28.1016 91.5914
5562.96 28.3174 98.6119
5565.84 18.8374 104.105
5568.72 31.0136 105.725
5571.59 28.6719 95.7874
5574.47 30.6908 95.774
5577.35 26.0197 88.521
5580.23 -7.90129 81.359
5583.11 27.7967 96.9718
5585.99 12.8363 97.3519
5588.87 27.88 97.6545
5591.74 28.6708 90.3841
5594.62 27.9608 91.4519
5597.5 28.5534 87.5962
5600.38 27.7442 91.4882
5603.25 29.8477 87.8717
5606.13 21.2877 90.8596
5609.01 29.8226 90.8159
5611.89 23.5019 90.9545
5614.76 31.3797 88.1039
5617.64 26.8726 95.6412
5620.52 30.3468 93.8625
5623.4 27.9407 88.9678
5626.27 21.7457 87.3932
5629.15 26.9799 92.5757
5632.03 28.2791 95.1168
5634.9 27.6899 96.6132
5637.78 19.4178 98.4191
5640.65 20.4611 91.4044
5643.53 30.2456 94.2056
5646.41 25.8859 89.3462
5649.28 24.4408 88.7362
5652.16 22.977 93.2928
5655.03 24.9776 92.526
5657.91 20.5171 88.681
5660.79 17.6259 83.5218
5663.66 24.5208 90.3107
5666.54 22.9249 91.3212
5669.41 16.6564 87.7151
5672.29 23.2749 90.8447
5675.16 20.8766 91.5988
5678.04 16.0451 89.9206
5680.91 15.0866 85.9544
5683.79 21.1521 90.5604
5686.66 21.6862 84.7414
5689.54 20.7942 90.9153
5692.41 19.8902 82.8824
5695.29 12.4813 85.4964
5698.16 19.9927 82.7886
5701.03 12.9199 85.1059
5703.91 17.6709 89.1916
5706.78 19.7807 84.9815
5709.66 16.4172 83.8019
5712.53 12.1519 86.2749
5715.4 19.6878 80.4351
5718.28 18.4553 83.4958
5721.15 19.4417 79.0535
5724.02 17.1525 83.0431
5726.9 11.749 85.4253
5729.77 18.6726 84.7519
5732.64 19.9536 88.0547
5735.52 18.4635 84.9701
5738.39 12.9603 81.549
5741.26 20.386 88.9813
5744.13 13.0361 87.6965
5747.01 23.3357 81.1702
5749.88 17.4787 82.9861
5752.75 15.9799 91.4293
5755.62 23.4088 81.7187
5758.5 26.0582 88.4915
5761.37 22.2515 89.3457
5764.24 15.8642 85.2514
5767.11 23.7209 89.8445
5769.98 22.5905 87.464
5772.86 23.9922 88.8018
5775.73 21.7092 87.5719
5778.6 22.7143 87.9546
5781.47 23.4416 91.9207
5784.34 26.9419 86.8229
5787.21 27.5439 93.5966
5790.08 25.8345 86.3321
5792.95 15.3149 84.4617
5795.82 25.5083 92.4766
5798.69 26.5549 88.2608
5801.56 22.1179 86.7496
5804.44 25.2907 83.4098
5807.31 24.11 83.5949
5810.18 23.4131 81.6196
5813.05 19.9934 88.4244
5815.92 21.3062 85.5492
5818.79 21.1184 86.398
5821.65 25.335 85.1075
5824.52 23.5934 82.5171
5827.39 23.4225 87.4028
5830.26 17.5686 88.229
5833.13 23.8612 84.9645
5836 20.3703 90.4999
5838.87 24.3395 84.6828
5841.74 22.3502 85.2675
5844.61 23.8875 83.5427
5847.48 14.3528 85.8446
5850.35 24.6384 87.4998
5853.21 22.2949 91.6377
5856.08 23.0738 88.0674
5858.95 17.8422 92.9297
5861.82 23.3 89.1427
5864.69 14.4879 86.0071
5867.55 22.2971 86.5548
5870.42 20.7596 83.1578
5873.29 23.595 86.6768
5876.16 24.8058 86.6389
5879.03 21.2603 94.9928
5881.89 10.1958 88.3732
5884.76 21.1356 83.2681
5887.63 21.2671 81.6145
5890.49 22.2022 84.6707
5893.36 21.8451 85.491
5896.23 23.1407 87.1897
5899.09 22.8294 81.205
5901.96 19.354 85.8903
5904.83 18.465 87.964
5907.69 18.6833 86.3434
5910.56 19.8842 73.8348
5913.43 18.6487 79.4162
5916.29 20.4575 81.6394
5919.16 14.9099 74.0336
5922.02 19.2943 82.7506
5924.89 17.0311 84.1081
5927.75 17.235 90.0808
5930.62 8.23745 84.2051
5933.49 13.8911 89.129
5936.35 19.2071 85.6994
5939.22 18.2021 82.9269
5942.08 17.9837 87.9762
5944.95 15.5042 85.7258
5947.81 16.9582 84.6215
5950.67 18.0822 81.6622
5953.54 9.754 86.2776
5956.4 12.1477 87.2778
5959.27 14.9535 81.9443
5962.13 16.3706 83.2732
