wavelength spec_sum spec_optimal
3527.11 1570.03 1594.99
3530.02 1497.28 1476.8
3532.94 1505.7 1525.94
3535.86 1507.93 1505.67
3538.78 1542.29 1532.16
3541.69 1535.98 1546.18
3544.61 1667.76 1693.74
3547.53 1671.62 1650.38
3550.44 1601.66 1628.75
3553.36 1667.81 1659.31
3556.28 1613.04 1613.02
3559.19 1599.13 1578.15
3562.11 1624.83 1585.13
3565.03 1533.1 1521.45
3567.94 1585.59 1581.53
3570.86 1525.53 1533.88
3573.78 1580.54 1586.65
3576.69 1587.97 1593.66
3579.61 1551.41 1558.84
3582.53 1485.18 1464.63
3585.44 1488.58 1508.79
3588.36 1601.68 1622.2
3591.28 1565.55 1565.97
3594.19 1573.07 1565.54
3597.11 1593.65 1593.59
3600.03 1529.22 1521.44
3602.95 1533.53 1523.3
3605.86 1546.8 1561.56
3608.78 1576.99 1597.21
3611.7 1557.49 1545.32
3614.61 1594.4 1607.36
3617.53 1674.84 1666.99
3620.45 1640.11 1650.81
3623.36 1747.27 1731.5
3626.28 1670.08 1647.3
3629.19 1497.18 1477.93
3632.11 1638.14 1640.51
3635.03 1734.4 1741.69
3637.94 1715.55 1706.82
3640.86 1615 1617.85
3643.78 1755.32 1766.07
3646.69 1677.37 1696.69
3649.61 1705 1702.55
3652.53 1725.28 1730.77
3655.44 1685.51 1679.55
3658.36 1683.27 1680.93
3661.28 1730.86 1748.66
3664.19 1726.01 1726.39
3667.11 1763.6 1790.41
3670.03 1663.1 1658.77
3672.94 1603.41 1593.38
3675.86 1687.97 1674.59
3678.78 1583.79 1602.68
3681.69 1648.3 1621.56
3684.61 1642.48 1657.41
3687.52 1680.93 1680.11
3690.44 1720.54 1717.6
3693.36 1622.2 1621.61
3696.27 1674.55 1681.75
3699.19 1683.2 1689.67
3702.11 1669.97 1650.56
3705.02 1742.4 1735.28
3707.94 1704.42 1693.06
3710.85 1767.4 1771.48
3713.77 1843.13 1837.66
3716.69 1661.46 1630.06
3719.6 1776.93 1780.69
3722.52 1774.18 1784.63
3725.44 1935.41 1959.13
3728.35 1858.51 1833.18
3731.27 1637.11 1643.22
3734.18 1754.06 1768.75
3737.1 2011.53 2030.09
3740.02 2051.56 2042.58
3742.93 1949.45 1942.03
3745.85 1739.7 1719.78
3748.76 1777.29 1821.28
3751.68 1934.6 1938.99
3754.6 2036.9 2025.37
3757.51 2170.01 2168.02
3760.43 2127.79 2081.31
3763.34 2094.44 2081.55
3766.26 1863.58 1855.47
3769.18 1849.89 1872.03
3772.09 2029.14 2048.71
3775.01 2289.16 2331.09
3777.92 2482.16 2480.85
3780.84 2439.17 2420.57
3783.75 2578.17 2549.71
3786.67 2524.93 2550.77
3789.59 2419.73 2412.39
3792.5 2194.83 2206.47
3795.42 1963.94 1983.92
3798.33 2103.15 2135.09
3801.25 2314.94 2327.4
3804.16 2475.92 2475.6
3807.08 2612.55 2599.1
3810 2791.58 2766.2
3812.91 2839.61 2802.3
3815.83 2927.55 2933.7
3818.74 2929.42 2931.56
3821.66 2739.7 2730.17
3824.57 2569.72 2570.25
3827.49 2330.58 2314.37
3830.4 2085.21 2065.19
3833.32 1923.73 1935.11
3836.24 1965.2 2004.13
3839.15 2091.14 2132.07
3842.07 2428.55 2444.73
3844.98 2558.41 2565.16
3847.9 2650.9 2627.95
3850.81 2795.69 2791.78
3853.73 2949.33 2928.64
3856.64 3066.84 3057.6
3859.56 3143.9 3152.33
3862.47 3081.96 3068.6
3865.39 3169.82 3145.36
3868.3 3142.89 3130.15
3871.22 2992.48 2957.4
3874.13 2858.71 2858.37
3877.05 2739.14 2728.2
3879.96 2548.48 2548.49
3882.88 2260.71 2247.88
3885.79 1983.53 1981.89
3888.71 1963.6 2004.62
3891.62 2042.98 2078.66
3894.54 2258.46 2293.41
3897.45 2369.27 2382.91
3900.37 2514.93 2511.77
3903.28 2617.89 2616.18
3906.2 2807.65 2794.32
3909.11 3025.77 3019.05
3912.03 3042.66 3027.14
3914.94 3066.85 3085.04
3917.86 3151.97 3166.39
3920.77 3287.39 3287.66
3923.69 3319.92 3308.56
3926.6 3194.6 3162.89
3929.52 2865.08 2847.38
3932.43 2816.42 2842.48
3935.35 3015.34 3030.34
3938.26 3093.62 3073.42
3941.18 3129.07 3131.2
3944.09 3047.58 3052.78
3947 3016.31 3019.39
3949.92 3002.77 2991.39
3952.83 2962.65 2951.99
3955.75 2946.04 2959.26
3958.66 2814.31 2797.08
3961.58 2564.42 2553.4
3964.49 2225.61 2198.07
3967.41 1887.05 1895.47
3970.32 1947.6 1978.16
3973.23 2165.18 2199.3
3976.15 2321.99 2339.42
3979.06 2492.32 2501.2
3981.98 2636.81 2641.5
3984.89 2849.35 2856.73
3987.8 2981.53 2975.31
3990.72 3076.18 3077
3993.63 3104.26 3100.21
3996.55 3241.9 3226.86
3999.46 3302.28 3296.51
4002.37 3382.66 3385.37
4005.29 3424.3 3440
4008.2 3531.56 3536.49
4011.12 3572.33 3564.15
4014.03 3662.1 3667.95
4016.94 3707.27 3701.72
4019.86 3616.58 3595.62
4022.77 3662.42 3652.47
4025.69 3755.17 3746.07
4028.6 3582.59 3574.97
4031.51 3555.66 3564.54
4034.43 3672.7 3683.31
4037.34 3697.8 3700.99
4040.25 3594.92 3583.5
4043.17 3546.79 3546.01
4046.08 3589.44 3600.27
4048.99 3578.14 3583.31
4051.91 3527.47 3521.17
4054.82 3569.16 3569.27
4057.74 3563.49 3563.24
4060.65 3468.14 3467.85
4063.56 3488.51 3489.94
4066.48 3432.15 3437.8
4069.39 3371.11 3355.43
4072.3 3226.88 3210.84
4075.22 3022.23 3010.92
4078.13 3004.49 3017.97
4081.04 3023.28 3015.73
4083.95 3011.56 3019.53
4086.87 3027.41 3028.5
4089.78 2991.54 2991.02
4092.69 2825.25 2794.35
4095.61 2515.15 2489.75
4098.52 2216.74 2192.22
4101.43 2137.85 2148.48
4104.35 2219.51 2243.24
4107.26 2384.07 2409.92
4110.17 2552.46 2581.82
4113.08 2718.56 2740.53
4116 2766.85 2758.07
4118.91 2888.79 2886.9
4121.82 2934.02 2939.61
4124.73 3019.49 3007.58
4127.65 3010.78 3009.53
4130.56 3069.98 3080.13
4133.47 3197.9 3208.6
4136.39 3364.08 3376.44
4139.3 3418.81 3412.45
4142.21 3347.32 3337.78
4145.12 3432.88 3447.98
4148.04 3490.94 3484.63
4150.95 3415.97 3401.17
4153.86 3441.99 3438.79
4156.77 3529.04 3546.33
4159.68 3520.05 3524.56
4162.6 3567.6 3573.21
4165.51 3583.48 3587.14
4168.42 3542.57 3536.83
4171.33 3445.91 3441.95
4174.25 3422.51 3409.8
4177.16 3392.42 3391.1
4180.07 3447.59 3450.57
4182.98 3408.25 3398.14
4185.89 3420.02 3431.01
4188.8 3449.35 3461.93
4191.72 3419.66 3415.36
4194.63 3373.64 3365.38
4197.54 3329.88 3313.86
4200.45 3293.55 3283.26
4203.36 3358.18 3351.98
4206.28 3438.67 3462.71
4209.19 3502.91 3504.51
4212.1 3453.32 3447.46
4215.01 3432.13 3421.75
4217.92 3472.94 3476.74
4220.83 3460.16 3438.02
4223.74 3321.54 3311.77
4226.66 3371.14 3375.06
4229.57 3444.43 3444.04
4232.48 3376.17 3363.88
4235.39 3323.32 3319.2
4238.3 3340.17 3348.09
4241.21 3395.75 3392.91
4244.12 3396.7 3387.92
4247.03 3376.9 3379.54
4249.95 3416.83 3428.06
4252.86 3431.46 3429.39
4255.77 3469.96 3465.06
4258.68 3430.71 3431.74
4261.59 3525.15 3536.29
4264.5 3598.07 3615.93
4267.41 3507.33 3503.07
4270.32 3417.4 3419.66
4273.23 3456.72 3473.2
4276.14 3544.49 3559.49
4279.05 3533.96 3541.51
4281.96 3528.86 3526.88
4284.88 3497.56 3506.39
4287.79 3478.61 3475.89
4290.7 3457.38 3453.41
4293.61 3442.91 3447.57
4296.52 3336.35 3323.77
4299.43 3213.2 3215.8
4302.34 3201.53 3206.62
4305.25 3191.5 3190.34
4308.16 3221.24 3226.6
4311.07 3244.34 3249.11
4313.98 3256.4 3259.02
4316.89 3305.77 3305.72
4319.8 3275.04 3278.74
4322.71 3188.44 3185.57
4325.62 3095.87 3089.05
4328.53 2945.31 2932.44
4331.44 2802.38 2782.39
4334.35 2537.29 2504.23
4337.26 2211.97 2179.04
4340.17 2059.84 2046.39
4343.08 2164.27 2180.36
4345.99 2327.85 2345.75
4348.9 2427.4 2445.49
4351.81 2559.75 2580.2
4354.72 2742.28 2761.35
4357.63 2835.64 2853.99
4360.54 2958.89 2971.45
4363.45 3066.86 3071.69
4366.35 3164.85 3163.53
4369.26 3217.37 3216.63
4372.17 3249.32 3243.91
4375.08 3289.48 3287.68
4377.99 3376.54 3375.38
4380.9 3315.71 3302.31
4383.81 3236.58 3227.13
4386.72 3300.65 3295.82
4389.63 3280.9 3268.29
4392.54 3327.73 3318.98
4395.45 3321.58 3326.26
4398.35 3312.29 3304.22
4401.26 3373.1 3370.22
4404.17 3375.87 3371.24
4407.08 3373.64 3367.85
4409.99 3390.99 3395.65
4412.9 3362.33 3362.91
4415.81 3367.39 3370.42
4418.72 3361.26 3365.5
4421.62 3435.39 3436.04
4424.53 3427.13 3427.69
4427.44 3366.87 3361.69
4430.35 3368.76 3373.34
4433.26 3379.14 3390.3
4436.17 3451.24 3468.07
4439.07 3481.37 3477.59
4441.98 3380.46 3373.87
4444.89 3358.15 3362.88
4447.8 3357.97 3362.47
4450.71 3338.57 3340.42
4453.61 3362.86 3359.84
4456.52 3352.77 3354.74
4459.43 3328.58 3326.71
4462.34 3250.51 3244.8
4465.25 3240.06 3236.79
4468.15 3215.76 3221.77
4471.06 3307.14 3312.93
4473.97 3396.85 3406.88
4476.88 3377.4 3376.12
4479.78 3295.58 3295.17
4482.69 3309.46 3313.79
4485.6 3370.13 3370.18
4488.51 3352.28 3352.78
4491.41 3373.49 3380.49
4494.32 3397 3395.65
4497.23 3418.1 3412.36
4500.13 3433.39 3436.24
4503.04 3526.06 3521.59
4505.95 3492.67 3484.75
4508.86 3517.3 3504.15
4511.76 3522.54 3513.25
4514.67 3478.16 3465.82
4517.58 3399.67 3379.78
4520.48 3318.73 3310.95
4523.39 3253.5 3247.07
4526.3 3235.25 3229.53
4529.2 3248.4 3239.77
4532.11 3292.37 3293.47
4535.02 3296.71 3310.4
4537.92 3307.33 3304.54
4540.83 3301.31 3316.34
4543.74 3335.25 3342.78
4546.64 3299.02 3303.64
4549.55 3227.43 3241.59
4552.45 3142.3 3142.64
4555.36 3118.5 3119.24
4558.27 3153.71 3165.18
4561.17 3189.37 3197.67
4564.08 3264.92 3282.17
4566.98 3300.63 3324.3
4569.89 3303.15 3312.32
4572.8 3304.54 3325.6
4575.7 3339.71 3364.39
4578.61 3307.22 3321.53
4581.51 3298.45 3309.2
4584.42 3293.27 3305
4587.32 3296.54 3298.22
4590.23 3293.53 3290.22
4593.14 3262.17 3253.87
4596.04 3314.84 3299.17
4598.95 3347.43 3325.81
4601.85 3333.31 3302.63
4604.76 3337.92 3306.53
4607.66 3375.26 3331.3
4610.57 3394.99 3347.89
4613.47 3421.94 3355.98
4616.38 3367.5 3290.26
4619.28 3381.03 3283.84
4622.19 3443.52 3338.16
4625.09 3445.94 3325.17
4628 3409.35 3273.88
4630.9 3168.41 3326.25
4633.81 3123.19 3258.2
4636.71 3144.52 3272.65
4639.61 3159.97 3276.61
4642.52 3187.69 3297.23
4645.42 3174.81 3264
4648.33 3153.05 3231.11
4651.23 3218.37 3278.91
4654.14 3173.32 3220.97
4657.04 3216.91 3255.23
4659.94 3233.79 3255.68
4662.85 3217.3 3226.55
4665.75 3147.71 3150.75
4668.66 3110.12 3114.53
4671.56 3182.34 3173.39
4674.46 3231.7 3216.65
4677.37 3248.16 3221.89
4680.27 3231.44 3199.95
4683.18 3242.96 3211.54
4686.08 3278.66 3242.14
4688.98 3272.42 3235.17
4691.89 3275.62 3235.44
4694.79 3310.38 3274.29
4697.69 3303.5 3269.09
4700.6 3246.1 3208.14
4703.5 3201.25 3171.46
4706.4 3225.77 3196.2
4709.31 3237.51 3215.99
4712.21 3226.1 3199.57
4715.11 3223.31 3197.64
4718.01 3268.64 3250.3
4720.92 3282.24 3268.44
4723.82 3267.27 3256.92
4726.72 3220.61 3216
4729.63 3207.94 3206.82
4732.53 3227.85 3230.96
4735.43 3176.45 3178.36
4738.33 3198.5 3203.44
4741.24 3180.37 3191.15
4744.14 3182.81 3194.03
4747.04 3166.45 3183.42
4749.94 3186.61 3198.31
4752.85 3157.49 3173.46
4755.75 3151.71 3171.81
4758.65 3134.26 3148.64
4761.55 3113.87 3131.66
4764.45 3094.17 3111.3
4767.36 3093.21 3113.52
4770.26 3107.48 3125.87
4773.16 3108.17 3122.89
4776.06 3112.46 3125.33
4778.96 3132.46 3142.61
4781.86 3076 3086.34
4784.76 3062.15 3069.06
4787.67 3011.79 3020.59
4790.57 3027.62 3033.31
4793.47 3014.97 3026.4
4796.37 3021.57 3026.02
4799.27 3015.87 3013.35
4802.17 3006.83 3010.02
4805.07 2962.74 2961.25
4807.97 2939.58 2931.07
4810.88 2942.84 2941.5
4813.78 2970.76 2965.69
4816.68 2985.95 2979.12
4819.58 2921.62 2911.29
4822.48 2869.42 2862.37
4825.38 2859.59 2856.86
4828.28 2836.92 2833.52
4831.18 2862.36 2853.94
4834.08 2840.33 2830.03
4836.98 2835 2823.65
4839.88 2804.62 2792.92
4842.78 2727.65 2714.31
4845.68 2657.78 2649.8
4848.58 2594.93 2587.92
4851.48 2462.4 2454.81
4854.38 2262.32 2256.99
4857.28 2035.9 2036.01
4860.18 1803.76 1807.16
4863.08 1795.19 1800.99
4865.98 1935.95 1942.16
4868.88 2117.48 2119.29
4871.78 2244.11 2243.71
4874.68 2367.46 2365.37
4877.58 2519.98 2518.25
4880.48 2623.51 2624.83
4883.38 2649.12 2650.8
4886.27 2745.78 2744.77
4889.17 2774.78 2777.48
4892.07 2848.81 2851.46
4894.97 2918.85 2927.1
4897.87 2950.94 2951.81
4900.77 2958.12 2961.79
4903.67 3001.68 3006.88
4906.57 3026.55 3032.9
4909.47 3021.17 3024.68
4912.36 3013.32 3018.37
4915.26 3012.42 3010.49
4918.16 2894.97 2896.92
4921.06 2845.95 2847.15
4923.96 2869.89 2877.36
4926.86 2943.02 2946.97
4929.75 2973.07 2976.21
4932.65 2907.51 2903.97
4935.55 2858.34 2858.8
4938.45 2896.66 2899.71
4941.35 2945.46 2947.65
4944.24 2938.2 2941.18
4947.14 2987.53 2986.37
4950.04 2969.71 2965.75
4952.94 2930.22 2933.39
4955.83 2923.9 2922.27
4958.73 2908.5 2909.53
4961.63 2954.78 2952.97
4964.52 2945.05 2944.04
4967.42 2909.78 2906.24
4970.32 2913.92 2913.03
4973.22 2922.93 2917.91
4976.11 2943.71 2941.09
4979.01 2879.43 2879.43
4981.91 2755.78 2750.17
4984.8 2743.55 2743.96
4987.7 2790.17 2790.56
4990.6 2826.19 2824.56
4993.49 2874.66 2874.53
4996.39 2845.44 2844.19
4999.29 2818.81 2814.95
5002.18 2795.81 2799.48
5005.08 2782.98 2780.82
5007.97 2825.51 2823.65
5010.87 2832.87 2833.51
5013.77 2789.84 2788.05
5016.66 2770.8 2770.26
5019.56 2794.57 2794.55
5022.45 2856.58 2856.79
5025.35 2870.97 2873.31
5028.24 2895.65 2897.66
5031.14 2926.17 2926.44
5034.04 2902.56 2900.68
5036.93 2864.97 2865.76
5039.83 2835.92 2834.22
5042.72 2870.96 2874.1
5045.62 2906.42 2911.27
5048.51 2866.56 2864.44
5051.41 2883.02 2884.07
5054.3 2927.16 2925.8
5057.2 2919.28 2921.49
5060.09 2982.63 2984.26
5062.99 2930.77 2928.75
5065.88 2929.8 2927.95
5068.77 2894.36 2892.69
5071.67 2859.96 2860.49
5074.56 2801.34 2807.99
5077.46 2755.97 2754.91
5080.35 2729.07 2729.63
5083.25 2737.32 2742.17
5086.14 2765.8 2762.98
5089.03 2793.45 2792.85
5091.93 2802.48 2801.39
5094.82 2827.2 2829.34
5097.72 2751.64 2751.2
5100.61 2761.45 2760.38
5103.5 2772.31 2770.73
5106.4 2777.09 2779.48
5109.29 2760.99 2762.92
5112.18 2783.51 2783.43
5115.08 2774.24 2773.14
5117.97 2775.69 2775.51
5120.86 2728.26 2729.53
5123.76 2663.75 2662.44
5126.65 2685.69 2686.97
5129.54 2701.94 2701.53
5132.43 2691.94 2692.48
5135.33 2692.59 2688.99
5138.22 2696.52 2694.78
5141.11 2691.52 2690.74
5144 2709.56 2705.9
5146.9 2727.85 2729.09
5149.79 2739.57 2739.31
5152.68 2727.24 2727.52
5155.57 2733.28 2734.2
5158.47 2739.5 2738.47
5161.36 2724.35 2720.68
5164.25 2670.08 2670.18
5167.14 2592.78 2590.8
5170.03 2568.23 2569.66
5172.92 2606.16 2606.59
5175.82 2680.57 2682.02
5178.71 2706.4 2706.74
5181.6 2679.16 2675.56
5184.49 2634.73 2638.73
5187.38 2623.63 2621.63
5190.27 2593.24 2596.38
5193.16 2613.95 2614.41
5196.05 2576.16 2575.73
5198.94 2586.67 2589.33
5201.84 2568.75 2572.42
5204.73 2527.26 2526.74
5207.62 2568.07 2572.89
5210.51 2641.71 2643.52
5213.4 2650.51 2652.61
5216.29 2631.35 2632.79
5219.18 2684.77 2686.02
5222.07 2688.9 2686.27
5224.96 2631.79 2625.47
5227.85 2569.65 2563.58
5230.74 2587.09 2583.89
5233.63 2563.25 2555.76
5236.52 2600.58 2599.96
5239.41 2659.56 2657.21
5242.3 2699.49 2700.21
5245.19 2667.84 2669.95
5248.08 2663.43 2666.88
5250.97 2653.9 2656.16
5253.85 2647.71 2651.1
5256.74 2643.86 2648.7
5259.63 2637.61 2641.43
5262.52 2581.19 2584.96
5265.41 2548.11 2551.21
5268.3 2479.36 2480.58
5271.19 2472.51 2477.39
5274.08 2471.87 2473.21
5276.97 2517.95 2515.74
5279.85 2534.92 2529.15
5282.74 2555.53 2549.12
5285.63 2586.31 2580.26
5288.52 2629.01 2625.52
5291.41 2616.25 2611.29
5294.3 2623.9 2620.47
5297.18 2632.69 2629.94
5300.07 2600.81 2602.27
5302.96 2603.48 2607.55
5305.85 2632.05 2635.15
5308.73 2645.34 2649.63
5311.62 2625.02 2625.73
5314.51 2587.23 2588.44
5317.4 2591.99 2591.1
5320.28 2573.27 2572.05
5323.17 2534.46 2534.25
5326.06 2514.89 2515.94
5328.94 2472.89 2471.21
5331.83 2553.63 2553.87
5334.72 2554.93 2554.72
5337.6 2528.59 2532.05
5340.49 2531.3 2530.78
5343.38 2560.18 2561.75
5346.26 2578.32 2580.4
5349.15 2597.07 2595.69
5352.04 2612.09 2611.78
5354.92 2634.54 2633.94
5357.81 2613.42 2611.33
5360.69 2599.66 2597.56
5363.58 2539.51 2537.12
5366.47 2498.15 2500.91
5369.35 2486 2485.83
5372.24 2503.95 2507.06
5375.12 2550.52 2552.65
5378.01 2555.98 2553.91
5380.89 2536.16 2536.48
5383.78 2534.34 2534.96
5386.66 2525.73 2526.72
5389.55 2555.48 2555.92
5392.43 2523.69 2524.23
5395.32 2520.9 2522
5398.2 2486.93 2487.38
5401.09 2470.26 2465.64
5403.97 2434.01 2432.03
5406.86 2419.07 2417.42
5409.74 2416.06 2417.35
5412.63 2444.11 2444.97
5415.51 2485.05 2485.46
5418.39 2489.26 2492.93
5421.28 2502.8 2503.35
5424.16 2470.54 2467.37
5427.05 2469.53 2471.26
5429.93 2472.97 2474.47
5432.81 2464.92 2465.97
5435.7 2506.4 2507.11
5438.58 2536.26 2535.06
5441.46 2535.21 2534.55
5444.35 2501.47 2500.58
5447.23 2473.74 2473.83
5450.11 2513.9 2511.85
5453 2501.37 2499.68
5455.88 2481.15 2480.61
5458.76 2496.38 2496.27
5461.64 2472.96 2470.71
5464.53 2480.36 2479.65
5467.41 2505.93 2508.13
5470.29 2473.7 2472.51
5473.17 2421.87 2421.29
5476.06 2399.73 2399.3
5478.94 2406.09 2403.33
5481.82 2439.35 2440.21
5484.7 2473.36 2473.74
5487.58 2477.74 2475.99
5490.46 2483.98 2484.91
5493.35 2507.33 2506.82
5496.23 2470.59 2472.35
5499.11 2440.69 2441.16
5501.99 2447.56 2448.57
5504.87 2454.94 2454.49
5507.75 2437.67 2437.3
5510.63 2423.15 2422.69
5513.51 2439.77 2442.34
5516.4 2470.07 2472.3
5519.28 2463.59 2463.28
5522.16 2451.83 2451.33
5525.04 2443.77 2444.73
5527.92 2426.9 2429.09
5530.8 2444.7 2445.2
5533.68 2417.49 2417.84
5536.56 2434.38 2436.71
5539.44 2458.72 2458.5
5542.32 2423.07 2427.09
5545.2 2391.8 2394.21
5548.08 2419.55 2419.39
5550.96 2435.58 2435.94
5553.84 2457.91 2458.55
5556.72 2427.04 2427.75
5559.6 2443.48 2443.21
5562.47 2422.87 2423.88
5565.35 2420.5 2421.14
5568.23 2415.71 2413.91
5571.11 2397.81 2399.66
5573.99 2392.91 2397.57
5576.87 2408.87 2411.09
5579.75 2418.68 2419.4
5582.63 2408.62 2407.48
5585.5 2378.18 2372.52
5588.38 2385.36 2380.71
5591.26 2380.18 2371.39
5594.14 2367.04 2364.79
5597.02 2393.02 2389.51
5599.89 2363.9 2357.89
5602.77 2381.48 2377.94
5605.65 2397.29 2397.31
5608.53 2388.28 2386.58
5611.4 2394.83 2392.21
5614.28 2373.04 2368.76
5617.16 2360.31 2358.38
5620.04 2356.02 2353.54
5622.91 2354.64 2351.8
5625.79 2358.72 2359.21
5628.67 2381.38 2379.01
5631.54 2385.73 2383.64
5634.42 2366.69 2366.34
5637.3 2354.32 2352.94
5640.17 2342.65 2342.75
5643.05 2350.89 2351.8
5645.93 2352 2354.54
5648.8 2343.77 2344.66
5651.68 2357.68 2361.35
5654.55 2332.34 2335.36
5657.43 2286.34 2288.67
5660.3 2277.66 2280.97
5663.18 2254.19 2259.36
5666.06 2275.38 2280.47
5668.93 2310.36 2316.26
5671.81 2313.07 2321.86
5674.68 2336.51 2341.81
5677.56 2314.41 2322.65
5680.43 2300.35 2306.61
5683.31 2283.72 2289.61
5686.18 2260.22 2270.28
5689.06 2261.07 2268.45
5691.93 2285.12 2291.47
5694.8 2284.89 2291.57
5697.68 2281.19 2286.89
5700.55 2273.62 2280.45
5703.43 2273.14 2277.44
5706.3 2249.73 2254.82
5709.17 2238.19 2244.85
5712.05 2253.66 2256.23
5714.92 2265.86 2267.08
5717.8 2264.83 2267.57
5720.67 2286.1 2285.17
5723.54 2303.18 2302.93
5726.41 2279.18 2274.62
5729.29 2288.34 2280.76
5732.16 2299.55 2289.51
5735.03 2277.8 2264.24
5737.91 2299.6 2283.98
5740.78 2292.88 2272.95
5743.65 2295.67 2270.93
5746.52 2274.29 2248.48
5749.4 2287.15 2255
5752.27 2290.47 2255.53
5755.14 2282.06 2241.5
5758.01 2298.07 2252.66
5760.88 2284.54 2234.74
5763.76 2296.84 2240.44
5766.63 2294.11 2230.76
5769.5 2309.86 2240.67
5772.37 2313.8 2235.2
5775.24 2140.33 2245.65
5778.11 2141.31 2238.83
5780.98 2133.84 2219.96
5783.86 2134.23 2217.22
5786.73 2139.32 2212.08
5789.6 2173.48 2237.21
5792.47 2178.24 2233.33
5795.34 2176 2223.42
5798.21 2191.07 2231.92
5801.08 2202.43 2236.04
5803.95 2189.78 2220.17
5806.82 2187.44 2207.93
5809.69 2211.74 2226.19
5812.56 2233.66 2238.73
5815.43 2225.67 2225.6
5818.3 2245.15 2242.74
5821.17 2226.02 2221.18
5824.04 2261.28 2247.03
5826.91 2240.22 2220.17
5829.77 2239.22 2220.88
5832.64 2261.51 2236.49
5835.51 2262.5 2236.58
5838.38 2246.86 2219.13
5841.25 2258.74 2236.31
5844.12 2250.76 2225.55
5846.99 2231.05 2205.52
5849.86 2243.08 2214.14
5852.72 2164.91 2143.25
5855.59 2178.35 2158.04
5858.46 2186.32 2166.58
5861.33 2185.72 2168.18
5864.2 2207.68 2189.08
5867.06 2212.59 2192.3
5869.93 2219.75 2204.34
5872.8 2228.51 2212.15
5875.67 2223.19 2214.93
5878.53 2199.08 2195.91
5881.4 2187.29 2186.22
5884.27 2172.2 2173.74
5887.13 2116.79 2121.75
5890 2050.65 2060.09
5892.87 2055.1 2067.79
5895.73 2066.52 2072.52
5898.6 2108.73 2116.64
5901.47 2124.74 2131.87
5904.33 2140.76 2148.41
5907.2 2136.67 2147.08
5910.06 2143.16 2153.96
5912.93 2132.33 2149.73
5915.79 2129.48 2143.25
5918.66 2148.53 2162.23
5921.53 2136.8 2148.72
5924.39 2137.96 2147.8
5927.26 2144.11 2154.26
5930.12 2108.23 2118.2
5932.99 2112.63 2120.68
5935.85 2128.48 2138.1
5938.72 2138.58 2145.9
5941.58 2134.22 2140.49
5944.44 2119.51 2123.26
5947.31 2110.94 2115.03
5950.17 2124.97 2124.95
5953.04 2108.13 2110.87
5955.9 2116.97 2119.96
5958.76 2125.25 2121.98
5961.63 2131.05 2129.55
5964.49 2109.18 2101.9
5967.36 2114.68 2109.91
5970.22 2133.08 2126.9
