wavelength spec_sum spec_optimal
3527.92 8.02106 12.6607
3530.83 15.5181 13.5453
3533.75 11.8821 10.1114
3536.66 16.4969 17.0468
3539.58 12.5536 3.9089
3542.5 14.2739 17.1121
3545.41 8.87329 15.8423
3548.33 5.44299 11.3587
3551.24 11.9734 16.4478
3554.16 21.0443 24.8519
3557.07 12.051 18.3018
3559.99 12.0296 16.1854
3562.9 15.2696 18.6388
3565.82 12.0408 15.6173
3568.73 16.7942 15.0116
3571.65 19.7945 24.4283
3574.56 9.91868 9.74669
3577.48 13.3782 14.7994
3580.4 13.1694 16.8354
3583.31 14.3276 14.3806
3586.23 15.5587 18.9195
3589.14 15.8996 17.9191
3592.06 19.0289 19.7505
3594.97 11.0668 18.0594
3597.89 15.6094 18.0148
3600.8 19.8795 24.4955
3603.72 21.1879 23.5784
3606.63 14.0045 18.256
3609.55 19.1326 21.3711
3612.46 8.53922 13.9512
3615.38 15.021 18.8145
3618.29 16.7067 23.1439
3621.21 13.2964 16.6523
3624.12 12.9835 21.4707
3627.04 13.5323 12.3876
3629.95 8.73343 12.0563
3632.87 15.6756 20.1931
3635.79 11.842 14.9373
3638.7 12.405 16.4244
3641.62 16.5075 20.0665
3644.53 10.1184 6.7105
3647.45 15.5875 16.8771
3650.36 15.9757 15.3343
3653.28 11.6295 12.7036
3656.19 13.5732 13.7326
3659.11 12.2163 9.88634
3662.02 21.012 23.4019
3664.94 16.7996 20.108
3667.85 18.6587 17.8615
3670.77 14.6054 18.0425
3673.68 8.55765 10.8475
3676.6 12.1631 12.5012
3679.51 10.4394 12.1272
3682.43 16.9851 14.2084
3685.34 18.51 18.022
3688.26 17.3323 18.9509
3691.17 12.0457 14.0002
3694.09 13.912 13.2268
3697 21.1724 19.1542
3699.92 10.0289 9.14095
3702.83 19.504 21.6518
3705.75 18.2932 19.3521
3708.66 17.0656 15.5401
3711.58 15.2603 10.7398
3714.49 19.9523 19.8116
3717.41 11.8445 9.47546
3720.32 19.6737 17.4868
3723.23 20.1061 15.261
3726.15 17.9265 15.9576
3729.06 17.3672 13.2515
3731.98 12.9305 17.1771
3734.89 12.209 12.0696
3737.81 21.3607 15.2408
3740.72 11.7285 10.4132
3743.64 20.4534 19.7786
3746.55 11.2172 12.2335
3749.47 19.334 22.2327
3752.38 18.7962 21.4238
3755.3 14.1044 13.6873
3758.21 21.2773 22.7804
3761.13 22.5842 27.4098
3764.04 24.621 18.8397
3766.96 13.0882 15.4415
3769.87 17.6325 18.3038
3772.78 17.7814 24.1629
3775.7 20.8503 23.1015
3778.61 22.6577 22.9256
3781.53 21.9806 25.4589
3784.44 23.4274 31.0607
3787.36 19.4087 26.3877
3790.27 20.064 22.144
3793.19 17.1993 24.3033
3796.1 19.2142 21.3645
3799.01 13.2243 17.8192
3801.93 14.6963 14.7586
3804.84 18.1874 20.6534
3807.76 17.2978 18.5504
3810.67 12.8295 16.0197
3813.59 17.4086 15.8647
3816.5 19.7448 22.7112
3819.42 18.7111 23.3967
3822.33 19.993 23.7288
3825.24 19.0092 20.7218
3828.16 15.7559 18.0778
3831.07 19.5395 24.4405
3833.99 19.8988 20.7155
3836.9 23.3919 22.2239
3839.81 29.1515 29.3447
3842.73 18.9525 25.9707
3845.64 19.996 26.274
3848.56 18.5353 19.1754
3851.47 22.4276 23.2797
3854.38 18.3239 19.0321
3857.3 19.7134 22.7313
3860.21 18.6861 20.1117
3863.13 19.8839 21.7964
3866.04 19.4388 20.9174
3868.95 19.62 23.1639
3871.87 19.0059 19.9513
3874.78 16.7266 21.7633
3877.7 15.6179 17.9384
3880.61 17.1945 18.9702
3883.52 19.3487 20.1439
3886.44 22.299 24.5901
3889.35 16.2267 16.338
3892.27 15.9144 17.5872
3895.18 17.9519 16.0328
3898.09 17.9092 19.9404
3901.01 15.867 15.1335
3903.92 19.5822 20.2492
3906.83 19.5751 20.8543
3909.75 25.5314 29.444
3912.66 17.5559 23.681
3915.58 27.3907 33.124
3918.49 25.7857 30.3988
3921.4 23.5917 27.4268
3924.32 21.9999 27.5746
3927.23 22.7967 20.917
3930.14 23.0431 24.3348
3933.06 19.9752 22.6724
3935.97 21.8724 19.9369
3938.88 22.5219 23.2189
3941.8 17.4562 18.8658
3944.71 19.6555 20.1394
3947.62 21.6691 24.622
3950.54 21.2321 27.7183
3953.45 26.274 30.032
3956.36 18.3446 22.0042
3959.28 21.5597 24.3345
3962.19 21.0479 26.8487
3965.1 23.9469 22.3035
3968.02 20.3104 24.1579
3970.93 26.9318 28.2245
3973.84 20.8484 25.6049
3976.76 21.1423 26.3406
3979.67 24.5424 27.0736
3982.58 22.3362 22.2356
3985.49 23.4551 21.7777
3988.41 19.6044 19.1989
3991.32 19.0781 20.8304
3994.23 20.9328 23.9706
3997.15 22.8716 24.8804
4000.06 20.6052 22.665
4002.97 22.3908 24.1848
4005.89 20.1053 25.2107
4008.8 20.3995 23.3155
4011.71 25.1064 29.3756
4014.62 24.3668 29.9139
4017.54 21.8752 23.5622
4020.45 22.6308 24.8678
4023.36 23.0974 24.706
4026.27 15.2854 18.8878
4029.19 16.093 20.3698
4032.1 20.7693 21.5863
4035.01 17.6504 23.6234
4037.92 25.9066 30.0732
4040.84 23.1561 23.5569
4043.75 27.5362 31.7374
4046.66 25.2201 27.1108
4049.57 27.0243 29.7972
4052.49 25.3797 31.9272
4055.4 33.449 35.7736
4058.31 29.2103 29.4487
4061.22 27.6861 32.1516
4064.14 28.481 30.1835
4067.05 29.3339 31.7867
4069.96 29.5906 31.5993
4072.87 31.3391 33.0346
4075.79 33.0876 37.0968
4078.7 30.4681 32.012
4081.61 31.1648 36.0507
4084.52 33.1093 36.3709
4087.43 31.3762 38.3725
4090.35 31.4651 33.2596
4093.26 29.157 33.6808
4096.17 33.9964 35.1005
4099.08 33.1428 35.5877
4101.99 28.8854 29.4711
4104.91 32.5138 37.756
4107.82 30.1739 32.0934
4110.73 35.3001 35.3185
4113.64 31.1319 36.982
4116.55 29.8365 32.7013
4119.46 32.5194 33.8729
4122.38 24.8612 28.0339
4125.29 29.4455 36.0597
4128.2 28.4703 30.39
4131.11 35.6534 36.5517
4134.02 29.3706 27.8321
4136.93 34.3396 38.0792
4139.85 32.8846 38.9188
4142.76 29.2973 33.2876
4145.67 33.1774 37.0691
4148.58 32.3967 34.0596
4151.49 30.6134 34.0698
4154.4 29.3463 33.2637
4157.31 32.9624 36.9894
4160.22 26.1655 29.8686
4163.14 29.2224 36.5207
4166.05 28.8689 30.9002
4168.96 30.6763 34.9511
4171.87 30.5428 34.6697
4174.78 30.2544 34.7688
4177.69 32.034 34.7107
4180.6 30.551 35.7465
4183.51 31.3327 35.7471
4186.42 29.466 33.535
4189.34 30.078 33.7995
4192.25 33.3265 35.8071
4195.16 33.2797 36.0856
4198.07 28.5971 31.5685
4200.98 31.862 33.9711
4203.89 32.8466 35.809
4206.8 34.7599 37.9962
4209.71 32.2531 33.0767
4212.62 30.6846 34.5348
4215.53 33.5741 38.458
4218.44 30.5076 33.0028
4221.35 31.1859 36.2531
4224.26 33.2975 37.4941
4227.17 31.5414 31.5214
4230.08 32.2139 33.1257
4232.99 29.4379 33.7228
4235.9 29.5669 35.105
4238.81 30.3178 34.3601
4241.73 33.4811 37.8672
4244.64 31.2988 35.8477
4247.55 32.1686 34.8267
4250.46 32.8224 36.4283
4253.37 31.1645 33.0062
4256.28 33.1931 35.2201
4259.19 30.6016 33.0697
4262.1 27.4894 32.6828
4265.01 28.9375 33.059
4267.92 34.7983 37.8665
4270.83 31.0591 32.7414
4273.74 28.2584 31.6648
4276.65 30.9242 35.6683
4279.55 28.7114 32.5861
4282.46 27.361 30.3298
4285.37 34.1203 40.0964
4288.28 33.7599 38.5382
4291.19 34.4094 38.3895
4294.1 30.5243 35.93
4297.01 32.4859 35.2265
4299.92 29.8888 35.1211
4302.83 35.5195 39.8255
4305.74 33.3834 36.1222
4308.65 34.2989 37.0991
4311.56 31.645 36.0182
4314.47 37.1916 40.7631
4317.38 34.1578 36.7588
4320.29 33.4403 36.8977
4323.2 32.6774 35.5939
4326.11 37.7252 40.12
4329.01 30.4623 34.5503
4331.92 31.3305 39.8754
4334.83 35.7628 38.4129
4337.74 33.1407 37.2872
4340.65 31.0742 35.1078
4343.56 32.1993 34.0688
4346.47 31.7337 33.9764
4349.38 30.3006 33.4581
4352.29 30.9828 34.4012
4355.19 30.6411 37.1343
4358.1 32.9488 38.7274
4361.01 29.5078 32.7877
4363.92 28.9988 33.7071
4366.83 29.3513 32.2335
4369.74 30.1661 34.6663
4372.65 27.4138 31.5985
4375.55 27.2472 32.3267
4378.46 29.2227 32.8289
4381.37 33.6262 38.9055
4384.28 31.6017 37.6391
4387.19 31.3611 35.8756
4390.09 31.2255 35.4857
4393 34.4357 37.9676
4395.91 34.5974 37.9967
4398.82 31.5401 35.0025
4401.73 31.2492 35.3353
4404.63 32.5287 36.5647
4407.54 33.2798 38.3457
4410.45 36.7595 38.7264
4413.36 33.1808 36.9629
4416.27 30.7841 32.0132
4419.17 33.95 38.937
4422.08 34.7947 39.1682
4424.99 35.9232 42.7693
4427.9 34.7694 38.4448
4430.8 36.0737 39.1022
4433.71 32.6556 42.1129
4436.62 32.9463 37.7512
4439.53 38.6808 42.648
4442.43 37.0626 40.6626
4445.34 34.049 39.7985
4448.25 31.6194 35.0226
4451.16 29.2466 35.3147
4454.06 32.5589 38.8294
4456.97 34.7866 41.8929
4459.88 34.7495 39.666
4462.78 33.778 40.1976
4465.69 39.5176 43.0244
4468.6 29.7276 32.9421
4471.5 34.3666 39.5007
4474.41 34.1935 38.2477
4477.32 38.5662 43.1718
4480.23 35.9569 42.2135
4483.13 37.9496 44.2273
4486.04 34.5656 38.0493
4488.94 35.2925 40.4889
4491.85 34.1957 39.3338
4494.76 36.6854 40.5898
4497.66 32.2686 36.8392
4500.57 39.8061 43.7264
4503.48 30.6645 37.9703
4506.38 40.6715 45.7466
4509.29 34.4275 39.4614
4512.2 36.456 42.591
4515.1 40.6551 44.5552
4518.01 37.6973 43.4106
4520.91 39.2491 45.8127
4523.82 37.2482 41.176
4526.73 36.3381 44.234
4529.63 32.642 37.049
4532.54 35.7035 43.2366
4535.44 37.7604 45.4008
4538.35 38.0927 43.7455
4541.25 35.5012 38.5707
4544.16 37.0227 41.5804
4547.07 34.2118 39.37
4549.97 37.7689 41.6784
4552.88 38.323 43.7497
4555.78 37.4208 42.0077
4558.69 38.6275 44.1538
4561.59 41.3997 44.2507
4564.5 40.1051 44.5435
4567.4 36.3791 38.4954
4570.31 38.8857 41.5258
4573.21 41.9106 44.4071
4576.12 41.2019 43.8771
4579.02 42.0577 45.8708
4581.93 43.6251 47.7173
4584.83 34.0758 37.5125
4587.74 40.6458 44.8513
4590.64 38.1814 39.626
4593.55 37.5557 40.0688
4596.45 36.6076 38.718
4599.36 40.7698 41.9492
4602.26 41.1187 41.8609
4605.17 39.1651 35.591
4608.07 41.4825 42.0836
4610.97 37.8483 38.3697
4613.88 40.7091 40.7203
4616.78 40.3449 40.2035
4619.69 39.9182 41.1528
4622.59 36.7461 38.6505
4625.5 40.1692 37.761
4628.4 39.8535 39.202
4631.3 40.2795 37.1661
4634.21 38.323 35.9761
4637.11 39.8191 39.4647
4640.02 39.4085 40.1499
4642.92 44.5431 43.7117
4645.82 41.0495 40.3573
4648.73 40.6247 40.9244
4651.63 37.2962 37.2234
4654.53 42.7288 40.2389
4657.44 39.4918 38.5841
4660.34 39.49 36.8769
4663.24 39.1629 38.3328
4666.15 36.1888 36.2898
4669.05 38.7917 38.1016
4671.95 38.9236 34.9029
4674.86 43.038 41.0725
4677.76 39.3112 38.6522
4680.66 39.6983 37.6074
4683.57 45.1333 44.9275
4686.47 40.9341 42.2266
4689.37 42.4453 40.7458
4692.28 42.682 38.5695
4695.18 39.9002 40.3259
4698.08 39.884 38.0457
4700.98 45.8444 46.812
4703.89 45.0949 46.6288
4706.79 42.4984 40.9175
4709.69 42.7522 44.0097
4712.59 40.3136 43.692
4715.5 38.5589 39.8679
4718.4 41.0769 41.5573
4721.3 41.5309 42.2587
4724.2 44.3565 45.2402
4727.1 42.1802 41.2108
4730.01 38.9522 39.5583
4732.91 36.8131 37.0883
4735.81 40.0239 39.1632
4738.71 38.455 39.4545
4741.61 43.4559 44.7234
4744.52 39.937 41.6124
4747.42 41.5358 40.9183
4750.32 40.013 43.233
4753.22 37.1609 38.5156
4756.12 34.7913 38.5545
4759.02 38.5326 42.6235
4761.92 34.5456 42.1257
4764.83 37.4932 39.5762
4767.73 37.4203 40.2515
4770.63 35.0205 37.5629
4773.53 33.9236 43.0286
4776.43 30.8828 38.9186
4779.33 37.165 41.4193
4782.23 36.1787 39.0573
4785.13 35.6673 39.1742
4788.03 31.8761 41.9377
4790.94 39.344 43.7427
4793.84 36.3491 41.8909
4796.74 34.9046 36.7564
4799.64 33.4452 42.0445
4802.54 35.5603 40.242
4805.44 39.7712 44.8384
4808.34 34.9619 42.2019
4811.24 37.3407 41.9793
4814.14 32.7554 40.5653
4817.04 37.8011 42.5262
4819.94 38.2741 42.4054
4822.84 33.6268 41.0111
4825.74 36.8549 41.639
4828.64 35.7846 45.7309
4831.54 38.0362 43.4166
4834.44 39.084 42.2444
4837.34 32.4448 40.4774
4840.24 36.068 45.0869
4843.14 40.4641 43.774
4846.04 37.5103 45.3924
4848.94 40.2632 43.1399
4851.84 37.1341 44.8499
4854.74 40.099 44.107
4857.63 42.9378 48.2534
4860.53 39.4021 43.0265
4863.43 39.5888 44.0274
4866.33 43.4637 48.1703
4869.23 41.0001 44.3876
4872.13 39.8496 43.6221
4875.03 38.3156 44.5381
4877.93 42.3241 46.9087
4880.83 40.0224 44.8865
4883.73 41.087 47.2437
4886.62 42.9019 48.2375
4889.52 43.0567 49.9318
4892.42 46.2076 51.563
4895.32 40.1497 45.0479
4898.22 45.3151 53.5715
4901.12 42.8342 49.7439
4904.01 44.0419 53.2946
4906.91 39.8995 46.6061
4909.81 42.0462 48.1696
4912.71 42.6546 48.2561
4915.61 38.2024 47.9023
4918.5 47.3056 53.0564
4921.4 39.1477 44.6443
4924.3 35.2847 43.9021
4927.2 40.2785 44.8932
4930.09 39.7428 44.8049
4932.99 43.2793 48.4937
4935.89 35.1412 45.5677
4938.79 33.7322 42.3303
4941.68 37.7919 44.558
4944.58 34.2679 42.0031
4947.48 37.8283 43.5649
4950.38 39.8674 44.1138
4953.27 38.0265 43.6225
4956.17 38.5774 43.9583
4959.07 30.7868 39.4762
4961.96 35.6319 40.5062
4964.86 40.879 44.9701
4967.76 35.7958 45.872
4970.65 43.9643 48.4462
4973.55 40.3431 43.6738
4976.45 39.1883 45.1286
4979.34 40.2591 46.1699
4982.24 41.9175 46.8057
4985.13 42.8727 48.4094
4988.03 40.8019 48.931
4990.93 38.2291 42.3722
4993.82 38.4833 43.7272
4996.72 40.7699 46.9578
4999.61 40.6779 46.1408
5002.51 43.0677 49.6828
5005.41 42.177 47.7124
5008.3 42.0495 47.5024
5011.2 39.7651 45.4854
5014.09 40.9492 47.095
5016.99 44.323 49.3158
5019.88 44.8834 51.3833
5022.78 43.8866 51.6202
5025.67 43.0768 49.8597
5028.57 40.6946 46.2244
5031.46 34.9871 45.9196
5034.36 44.3799 51.5742
5037.25 43.892 51.59
5040.15 40.9021 47.2197
5043.04 42.9732 50.6645
5045.94 43.8099 52.7656
5048.83 44.277 51.4297
5051.73 44.5968 53.9036
5054.62 41.4779 48.1953
5057.52 41.3449 50.0738
5060.41 36.2051 49.396
5063.3 42.9384 50.4836
5066.2 41.0314 53.6843
5069.09 42.1746 50.5226
5071.99 42.5612 51.0367
5074.88 37.282 49.6417
5077.77 43.8389 52.1176
5080.67 42.2028 49.7997
5083.56 43.3288 52.2628
5086.46 43.4164 50.8905
5089.35 38.8036 51.4183
5092.24 41.6003 51.2507
5095.14 41.7838 51.4059
5098.03 43.7873 52.6064
5100.92 42.0745 49.9151
5103.82 41.49 50.6124
5106.71 44.1727 53.5061
5109.6 44.1347 51.0725
5112.49 41.9336 51.6543
5115.39 42.6079 52.5928
5118.28 39.1991 47.5607
5121.17 40.5657 51.2402
5124.07 42.8127 53.8845
5126.96 42.9226 51.0306
5129.85 36.2303 48.5168
5132.74 38.6373 52.2962
5135.64 46.1658 55.307
5138.53 42.789 49.2187
5141.42 45.55 54.1749
5144.31 45.3458 53.0838
5147.2 40.2688 52.6162
5150.1 45.5158 54.8372
5152.99 44.7993 53.5604
5155.88 45.6929 55.1765
5158.77 46.3744 54.7589
5161.66 42.1944 50.7815
5164.55 42.8332 51.9318
5167.45 45.5453 54.3144
5170.34 41.351 49.7909
5173.23 45.3256 56.1668
5176.12 45.2005 55.4872
5179.01 44.1894 54.1116
5181.9 45.4279 56.2745
5184.79 46.5485 58.132
5187.68 47.9534 58.754
5190.57 46.6061 57.6971
5193.46 46.1112 61.1806
5196.35 46.5395 56.2119
5199.25 48.3596 58.1233
5202.14 42.7291 58.5002
5205.03 41.206 55.5554
5207.92 46.8703 58.2767
5210.81 46.2464 56.8234
5213.7 48.652 60.0353
5216.59 49.2335 59.6338
5219.48 44.1552 59.798
5222.37 43.5768 53.8522
5225.26 40.416 56.1643
5228.15 47.6415 59.6697
5231.04 46.3457 57.4127
5233.92 44.9687 56.7681
5236.81 47.798 59.183
5239.7 43.692 60.2897
5242.59 49.2618 59.8251
5245.48 47.3961 59.8592
5248.37 46.2447 57.4236
5251.26 45.5883 56.2067
5254.15 45.0491 54.944
5257.04 46.0885 57.0251
5259.93 47.2345 60.5519
5262.81 49.5648 61.0249
5265.7 48.7206 60.0377
5268.59 46.9603 57.1888
5271.48 47.6677 57.9412
5274.37 50.7782 62.261
5277.26 47.177 57.5213
5280.15 49.8716 61.8771
5283.03 48.4581 59.9194
5285.92 49.9708 60.9231
5288.81 48.7673 59.9491
5291.7 48.7875 59.182
5294.58 44.4819 59.6653
5297.47 48.6948 65.0215
5300.36 50.7788 65.7231
5303.25 49.1118 61.6599
5306.13 49.4291 61.6861
5309.02 46.3968 62.9673
5311.91 45.9726 64.5768
5314.8 50.4535 62.7867
5317.68 49.7574 62.9577
5320.57 52.4509 65.269
5323.46 50.8477 64.5043
5326.34 52.0552 64.9641
5329.23 52.1982 65.54
5332.12 46.2727 56.9118
5335 53.1876 67.7028
5337.89 45.9192 62.7413
5340.78 49.2786 59.3059
5343.66 50.8464 61.4731
5346.55 44.6606 61.3583
5349.43 49.9048 61.0697
5352.32 48.9248 61.5951
5355.21 46.0216 58.9538
5358.09 50.6281 64.4391
5360.98 52.7929 67.2504
5363.86 53.5018 66.6495
5366.75 46.9497 64.9419
5369.63 54.9917 68.0479
5372.52 52.4761 71.1804
5375.4 52.5936 67.1346
5378.29 48.0884 61.4316
5381.17 47.6344 64.0544
5384.06 52.2593 64.9438
5386.94 54.1704 67.4226
5389.83 57.8275 71.2873
5392.71 57.9134 71.2035
5395.6 54.5215 68.3694
5398.48 55.8711 71.4645
5401.37 55.8996 70.0968
5404.25 51.8084 65.4214
5407.14 51.94 64.4026
5410.02 47.641 66.125
5412.9 48.5412 61.8021
5415.79 54.2919 68.4105
5418.67 45.9477 62.4867
5421.56 52.3106 65.8139
5424.44 54.376 67.4673
5427.32 48.9776 65.8898
5430.21 49.6347 68.2463
5433.09 53.6288 68.7537
5435.97 57.6902 71.705
5438.86 55.9877 71.2218
5441.74 50.5802 68.5638
5444.62 55.1862 69.579
5447.51 53.1435 68.4551
5450.39 52.6938 70.6456
5453.27 53.4321 66.9621
5456.15 55.2622 69.1336
5459.04 52.4352 67.9579
5461.92 54.8009 69.1293
5464.8 50.1925 69.8849
5467.68 54.6225 69.38
5470.57 54.2401 66.9695
5473.45 54.7471 69.1548
5476.33 53.629 68.374
5479.21 50.9287 64.8247
5482.09 49.1425 68.1464
5484.97 48.1976 66.5836
5487.86 50.9204 63.9521
5490.74 55.9108 69.6444
5493.62 53.1002 67.8679
5496.5 50.9548 69.5212
5499.38 50.6267 65.5659
5502.26 52.8262 67.9849
5505.14 52.9339 67.7221
5508.02 54.5685 68.9212
5510.91 58.9416 74.8695
5513.79 52.8877 67.3554
5516.67 53.5868 66.2636
5519.55 56.4086 72.0998
5522.43 50.3618 70.0126
5525.31 57.7007 72.6119
5528.19 53.7668 67.9903
5531.07 52.0105 65.8715
5533.95 53.1487 68.288
5536.83 55.3697 70.178
5539.71 53.9113 68.9704
5542.59 48.3973 66.5898
5545.47 54.684 68.2565
5548.35 52.8242 68.2057
5551.23 53.8517 67.6009
5554.11 52.2722 66.8396
5556.98 54.3842 67.6612
5559.86 50.9388 70.24
5562.74 50.9851 71.082
5565.62 57.6407 75.5345
5568.5 56.7992 77.5677
5571.38 59.8333 80.4583
5574.26 55.4525 70.209
5577.14 61.2026 71.8716
5580.01 34.1512 82.1978
5582.89 55.0721 73.047
5585.77 57.716 71.3756
5588.65 43.9842 69.846
5591.53 52.4288 67.3859
5594.41 52.0546 66.5162
5597.28 56.4479 71.5813
5600.16 53.9072 68.8146
5603.04 58.0465 72.3447
5605.92 55.0033 75.1987
5608.79 51.2841 70.4691
5611.67 55.6843 70.2007
5614.55 52.1778 66.0265
5617.43 55.2963 69.9674
5620.3 56.0524 71.3491
5623.18 53.3559 73.414
5626.06 54.9916 70.0806
5628.93 55.1502 69.3422
5631.81 53.7557 76.2544
5634.69 57.1911 75.1811
5637.56 49.5924 70.675
5640.44 56.0651 71.8498
5643.31 51.6672 71.5272
5646.19 48.7978 69.6521
5649.07 55.7724 72.2921
5651.94 55.2178 70.4485
5654.82 55.5633 70.1732
5657.69 52.0157 70.5112
5660.57 55.0231 70.1092
5663.44 56.5704 72.2777
5666.32 53.3665 67.4297
5669.2 49.3141 68.6396
5672.07 47.5966 67.4365
5674.95 56.3629 72.6491
5677.82 46.5043 67.3234
5680.7 54.0867 69.7993
5683.57 52.9248 68.3575
5686.44 53.4829 67.4759
5689.32 51.9492 72.6418
5692.19 58.2316 72.9769
5695.07 55.0771 69.0797
5697.94 51.0233 73.1599
5700.82 55.6951 73.2121
5703.69 51.8176 71.8987
5706.56 55.6781 71.4611
5709.44 55.8877 72.8792
5712.31 53.6975 67.9696
5715.19 58.4811 75.8752
5718.06 52.4827 69.0112
5720.93 57.1764 73.7712
5723.81 55.9862 70.8319
5726.68 56.7829 71.9981
5729.55 55.509 72.0276
5732.42 49.2736 69.1249
5735.3 54.5035 72.7416
5738.17 55.8133 71.3908
5741.04 57.8834 72.8913
5743.91 51.7355 71.3368
5746.79 56.5604 73.1118
5749.66 54.0798 71.7941
5752.53 54.3757 70.6218
5755.4 56.442 72.244
5758.28 56.6337 74.4541
5761.15 57.7397 75.8777
5764.02 51.3074 70.2272
5766.89 53.7499 69.6065
5769.76 59.7215 77.7945
5772.63 56.0362 71.443
5775.5 55.3125 71.9623
5778.38 57.5017 74.7197
5781.25 49.1111 69.1466
5784.12 49.6925 69.4316
5786.99 57.9263 75.0744
5789.86 51.2726 71.0527
5792.73 54.9902 70.9656
5795.6 55.5198 70.9997
5798.47 56.7436 72.226
5801.34 55.292 72.1789
5804.21 57.5342 74.2832
5807.08 54.9664 70.3564
5809.95 58.733 77.1512
5812.82 57.4674 74.5775
5815.69 61.4564 80.1884
5818.56 58.3872 75.6816
5821.43 61.1997 78.2456
5824.3 57.2975 73.6808
5827.17 58.8653 75.0283
5830.04 58.7819 74.3295
5832.91 59.8646 76.8582
5835.78 58.6541 76.4011
5838.64 56.2772 73.5109
5841.51 57.5273 74.5198
5844.38 57.6581 74.827
5847.25 59.0959 75.8329
5850.12 58.9631 76.0669
5852.99 56.981 73.6534
5855.85 55.7369 71.5757
5858.72 61.1013 78.264
5861.59 60.5265 81.3536
5864.46 58.243 76.727
5867.33 56.6795 71.7287
5870.19 57.0587 73.9379
5873.06 55.0584 73.2643
5875.93 60.4997 77.1563
5878.8 54.5263 70.6632
5881.66 58.2956 76.5631
5884.53 46.9624 74.1245
5887.4 61.4833 81.1143
5890.26 60.1635 76.2773
5893.13 41.0446 71.6419
5896 47.0397 78.2908
5898.86 55.3882 71.2117
5901.73 55.0871 71.4112
5904.6 57.1936 71.8477
5907.46 56.9138 72.9969
5910.33 57.8256 75.1024
5913.19 56.2548 72.7073
5916.06 57.3305 75.7164
5918.92 53.3563 77.0207
5921.79 60.7994 79.0697
5924.66 56.4206 80.5432
5927.52 60.8209 77.7258
5930.39 61.4992 79.0792
5933.25 49.4189 75.024
5936.12 56.5719 72.8059
5938.98 50.8378 75.4308
5941.85 50.091 73.9813
5944.71 49.3592 72.6281
5947.57 58.8702 75.8845
5950.44 58.8247 77.5468
5953.3 57.1867 72.7869
5956.17 57.7512 74.3718
5959.03 57.841 75.674
5961.89 58.8075 78.0544
5964.76 60.6021 78.4584
5967.62 58.3083 76.1323
