wavelength spectrum_sum 3smoothed_sum spectrum_optimal 3smoothed_optimal
3505.11 44.6779 38.125 -0.31746 5.13167
3508.03 69.697 62.7183 15.7125 8.67688
3510.95 73.7799 72.1613 10.6356 15.0199
3513.87 73.0069 69.5486 18.7117 7.00225
3516.8 61.859 75.6447 -8.34058 12.0653
3519.72 92.0682 75.4851 25.8249 14.0335
3522.64 72.528 79.0965 24.6162 17.8026
3525.56 72.6931 71.2422 2.96685 5.32965
3528.48 68.5054 63.6503 -11.5941 0.531316
3531.4 49.7524 66.7804 10.2212 2.75781
3534.32 82.0832 58.587 9.64632 10.1471
3537.24 43.9254 69.2986 10.5737 7.46527
3540.17 81.8872 60.8476 2.17579 13.3235
3543.09 56.7301 61.8633 27.2209 11.3334
3546.01 46.9727 62.4478 4.60355 18.8986
3548.93 83.6407 66.5887 24.8715 16.6869
3551.85 69.1527 75.1179 20.5857 23.3902
3554.77 72.5603 67.9992 24.7136 19.9574
3557.69 62.2845 65.6771 14.5729 17.7957
3560.61 62.1864 71.5371 14.1006 28.2097
3563.53 90.1405 91.6526 55.9558 40.0135
3566.45 122.631 103.231 49.9841 41.9032
3569.38 96.921 101.313 19.7696 28.0669
3572.3 84.3885 94.4118 14.447 16.5141
3575.22 101.926 99.3464 15.3256 24.8004
3578.14 111.725 103.389 44.6285 30.7104
3581.06 96.5179 112.304 32.1771 41.4113
3583.98 128.67 110.127 47.4283 35.4985
3586.9 105.195 100.824 26.8902 18.6461
3589.82 68.6091 83.3296 -18.3802 1.62193
3592.74 76.1851 76.6215 -3.64424 -8.05891
3595.66 85.0701 83.8522 -2.1523 2.72739
3598.58 90.3012 104.633 13.9787 12.7953
3601.5 138.527 111.315 26.5594 20.2065
3604.42 105.117 126.111 20.0815 13.6591
3607.35 134.689 115.481 -5.66364 12.3257
3610.27 106.638 110.484 22.5591 13.4418
3613.19 90.1264 100.288 23.4299 17.0288
3616.11 104.1 111.342 5.09746 24.2326
3619.03 139.799 115.764 44.1705 18.8194
3621.95 103.394 112.517 7.19021 17.6281
3624.87 94.3569 102.15 1.52344 3.96639
3627.79 108.699 105.266 3.18552 11.9546
3630.71 112.743 109.531 31.1549 21.2714
3633.63 107.151 100.898 29.4737 33.8962
3636.55 82.801 95.0162 41.06 35.312
3639.47 95.0968 94.5424 35.4022 40.7251
3642.39 105.729 110.202 45.7131 35.9889
3645.31 129.78 115.685 26.8515 32.7288
3648.23 111.546 105.357 25.6219 35.0589
3651.15 74.7441 90.8695 52.7034 41.7107
3654.07 86.3185 83.1745 46.8068 33.7369
3656.99 88.4609 78.4442 1.70041 20.6533
3659.91 60.5531 85.1041 13.4527 32.985
3662.83 106.298 69.0899 83.8019 41.9052
3665.75 40.4184 58.6923 28.461 56.1736
3668.67 29.3603 46.176 56.2581 46.3265
3671.59 68.7493 46.9101 54.2603 46.3206
3674.51 42.6208 51.7367 28.4434 29.299
3677.43 43.8401 47.1105 5.19315 30.2966
3680.35 54.8707 45.8333 57.2533 21.0785
3683.27 38.7892 43.0194 0.789213 34.3442
3686.19 35.3982 38.3428 44.9901 37.0693
3689.11 40.841 41.0851 65.4287 58.4284
3692.03 47.016 38.1261 64.8664 41.479
3694.95 26.5214 24.5796 -5.85814 30.4142
3697.87 0.20131 23.2724 32.2342 23.127
3700.79 43.0945 27.6417 43.005 36.3683
3703.71 39.6292 40.3141 33.8658 45.7233
3706.63 38.2188 40.0108 60.2993 45.6899
3709.55 42.1845 35.093 42.9046 37.788
3712.47 24.8757 57.9105 10.1602 40.927
3715.39 106.671 77.2769 69.7162 59.8179
3718.31 100.284 99.298 99.5774 82.9434
3721.23 90.939 102.811 79.5366 85.818
3724.15 117.211 107.396 78.34 84.7308
3727.07 114.04 111.669 96.3157 83.6909
3729.99 103.756 109.991 76.417 67.9984
3732.91 112.177 112.665 31.2626 63.2562
3735.83 122.062 112.017 82.0891 43.0704
3738.75 101.811 113.259 15.8596 60.5374
3741.67 115.905 117.482 83.6635 63.8583
3744.59 134.732 121.627 92.0519 79.5451
3747.51 114.246 99.2691 62.9198 67.8385
3750.42 48.83 69.8181 48.5437 44.0729
3753.34 46.3788 51.5645 20.7553 32.8737
3756.26 59.4847 60.3197 29.3221 39.6963
3759.18 75.0956 72.5914 69.0114 56.9507
3762.1 83.1938 75.8084 72.5185 63.3341
3765.02 69.1358 58.6444 48.4726 56.8181
3767.94 23.6035 54.4461 49.4633 51.1672
3770.86 70.599 40.1252 55.5658 53.4313
3773.78 26.1731 40.2533 55.2648 55.2636
3776.7 23.9878 22.5899 54.9602 50.9957
3779.62 17.6087 24.8304 42.7621 34.427
3782.54 32.8946 34.9601 5.5586 19.6905
3785.45 54.3771 50.7558 10.7509 15.1016
3788.37 64.9958 62.7148 28.9954 26.9752
3791.29 68.7715 70.571 41.1794 42.9113
3794.21 77.9456 90.4016 58.5592 64.2192
3797.13 124.488 79.8147 92.9191 58.2334
3800.05 37.0109 73.4722 23.2219 56.6569
3802.97 58.9181 46.5285 53.8297 53.0496
3805.89 43.6563 57.7734 82.0971 72.149
3808.81 70.7459 76.3896 80.5203 61.6941
3811.72 114.767 90.8494 22.4651 51.1058
3814.64 87.0355 101.483 50.3319 43.0141
3817.56 102.648 113.119 56.2453 48.5986
3820.48 149.675 134.753 39.2185 43.8878
3823.4 151.936 164.404 36.1996 36.3349
3826.32 191.601 177.784 33.5867 31.2591
3829.24 189.815 198.322 23.991 44.0257
3832.15 213.55 189.534 74.4995 45.7652
3835.07 165.237 181.196 38.8051 50.1428
3837.99 164.8 145.457 37.1238 39.0203
3840.91 106.334 124.465 41.1321 35.076
3843.83 102.261 104.487 26.9721 37.8679
3846.75 104.865 109.443 45.4993 49.5321
3849.66 121.204 119.245 76.1249 48.6769
3852.58 131.668 130.181 24.4064 56.8479
3855.5 137.672 141.998 70.0125 52.7305
3858.42 156.655 135.192 63.7727 63.6141
3861.34 111.248 125.128 57.0571 58.0095
3864.26 107.482 119.945 53.1988 49.5387
3867.17 141.104 118.23 38.3602 36.7116
3870.09 106.103 121.197 18.5759 28.0431
3873.01 116.382 108.488 27.1932 32.4059
3875.93 102.978 117.479 51.4486 26.9564
3878.85 133.077 127.05 2.22731 23.9804
3881.76 145.094 155.96 18.2654 7.99293
3884.68 189.71 175.482 3.48608 13.9047
3887.6 191.643 160.393 19.9627 9.1289
3890.52 99.8262 136.422 3.93788 28.9258
3893.44 117.798 94.3463 62.8769 54.0617
3896.35 65.4152 78.2638 95.3704 63.9829
3899.27 51.5788 67.2357 33.7016 39.6114
3902.19 84.7132 88.1957 -10.2378 25.1699
3905.11 128.295 94.9886 52.046 30.7192
3908.02 71.9573 82.5028 50.3493 64.633
3910.94 47.2559 65.9568 91.5036 59.4746
3913.86 78.6571 87.1204 36.5709 57.3455
3916.78 135.448 134.709 43.9621 70.9674
3919.69 190.023 170.155 132.369 70.451
3922.61 184.995 212.054 35.0217 64.6212
3925.53 261.145 226.025 26.4727 17.9166
3928.45 231.936 269.626 -7.74473 11.2434
3931.36 315.796 291.225 15.0021 6.22517
3934.28 325.942 299.841 11.4182 12.2547
3937.2 257.784 282.273 10.3438 18.7182
3940.12 263.093 214.399 34.3926 21.5786
3943.03 122.319 182.085 19.9994 34.4993
3945.95 160.843 142.697 49.1058 60.065
3948.87 144.93 134.713 111.09 66.991
3951.78 98.3656 110.829 40.7774 65.0257
3954.7 89.1898 105.108 43.2097 5.57137
3957.62 127.769 128.989 -67.2729 -35.3338
3960.54 170.008 171.295 -81.938 -84.9656
3963.45 216.108 226.771 -105.686 -84.7523
3966.37 294.198 262.03 -66.6332 -81.1653
3969.29 275.783 255.23 -71.1768 -44.7944
3972.2 195.71 211.902 3.42688 -30.0329
3975.12 164.213 141.392 -22.3487 -8.50173
3978.04 64.2541 80.9378 -6.58339 -21.9888
3980.95 14.346 46.4707 -37.0343 -7.2042
3983.87 60.8119 28.5379 22.0051 12.7223
3986.79 10.4557 27.4358 53.1961 48.289
3989.7 11.04 8.51356 69.6659 29.7374
3992.62 4.04499 15.0909 -33.6498 59.489
3995.54 30.1877 26.9429 142.451 58.5417
3998.45 46.596 37.5141 66.8241 105.264
4001.37 35.7586 52.1669 106.518 104.84
4004.29 74.146 45.361 141.178 82.2959
4007.2 26.1784 34.6555 -0.80894 73.3618
4010.12 3.64204 18.3016 79.716 70.2751
4013.03 25.0844 20.2941 131.918 122.869
4015.95 32.1558 20.005 156.974 96.6256
4018.87 2.77488 8.11371 0.984205 61.3439
4021.78 -10.5895 -6.88299 26.0731 16.3923
4024.7 -12.8343 -15.0126 22.1196 41.4885
4027.62 -21.6138 6.67449 76.2727 41.0175
4030.53 54.4716 21.896 24.6602 37.861
4033.45 32.8302 30.3912 12.65 22.8274
4036.36 3.87167 13.3568 31.1719 25.0882
4039.28 3.36866 10.0326 31.4427 41.1321
4042.2 22.8574 27.0585 60.7818 56.7996
4045.11 54.9495 43.4557 78.1742 57.0447
4048.03 52.5603 59.6787 32.1781 80.775
4050.94 71.5264 61.6475 131.973 108.138
4053.86 60.8559 52.9465 160.264 140.44
4056.78 26.4572 40.1548 129.083 102.294
4059.69 33.1514 44.2466 17.535 69.9434
4062.61 73.1312 48.3118 63.2125 92.8257
4065.52 38.6528 34.4388 197.73 101.27
4068.44 -8.46768 25.3346 42.8683 123.49
4071.35 45.8187 41.3585 129.872 85.2345
4074.27 86.7246 41.1253 82.9627 68.2465
4077.18 -9.16738 28.1038 -8.09583 37.8068
4080.1 6.75414 -13.5137 38.5534 24.7178
4083.02 -38.1278 -32.9729 43.6957 40.6266
4085.93 -67.5449 -53.4757 39.6306 66.3711
4088.85 -54.7543 -67.96 115.787 58.7128
4091.76 -81.5808 -42.3831 20.7208 48.2198
4094.68 9.18591 -5.77127 8.15147 35.5951
4097.59 55.0811 38.3297 77.9131 43.5701
4100.51 50.7223 41.9484 44.6457 80.8242
4103.42 20.0419 7.71764 119.914 85.5912
4106.34 -47.6112 -19.5482 92.2138 112.898
4109.25 -31.0752 -71.0879 126.566 81.1382
4112.17 -134.577 -85.5615 24.6349 76.9244
4115.08 -91.0322 -101.629 79.5724 68.8179
4118 -79.2768 -94.5411 102.246 123.256
4120.91 -113.314 -85.5002 187.95 126.902
4123.83 -63.9093 -89.936 90.5082 109.432
4126.74 -92.5842 -71.6451 49.8388 89.3271
4129.66 -58.4419 -55.7551 127.634 125.166
4132.57 -16.2393 -41.7919 198.026 153.872
4135.49 -50.6945 -40.8371 135.956 160.549
4138.4 -55.5775 -28.1244 147.666 166.33
4141.31 21.8989 -17.577 215.367 157.308
4144.23 -19.0523 -15.8623 108.892 147.405
4147.14 -50.4336 -39.1224 117.955 115.168
4150.06 -47.8812 -52.9836 118.657 133.594
4152.97 -60.6362 -40.278 164.169 161.856
4155.89 -12.3166 -42.0162 202.741 197.568
4158.8 -53.0957 -34.5925 225.792 225.935
4161.72 -38.3652 -58.1798 249.272 212.047
4164.63 -83.0785 -55.4491 161.078 210.687
4167.54 -44.9035 -48.939 221.712 211.825
4170.46 -18.835 -15.3141 252.683 221.797
4173.37 17.7963 -18.0953 190.996 187.879
4176.29 -53.2471 -23.3171 119.957 174.471
4179.2 -34.5006 -28.0626 212.459 165.861
4182.11 3.55983 -6.71505 165.165 184.699
4185.03 10.7956 -11.8611 176.472 181.719
4187.94 -49.9389 -21.6211 203.519 223.283
4190.86 -25.72 -24.4781 289.856 246.421
4193.77 2.22464 -11.0518 245.888 246.916
4196.68 -9.66009 -7.63262 205.003 243.906
4199.6 -15.4624 -0.251401 280.828 233.656
4202.51 24.3683 -21.4083 215.136 220.901
4205.42 -73.1309 -19.4046 166.738 186.283
4208.34 -9.45113 -33.4203 176.976 209.158
4211.25 -17.6789 -4.14039 283.76 225.223
4214.16 14.7088 -17.3071 214.933 253.65
4217.08 -48.9514 -16.9809 262.256 230.451
4219.99 -16.7001 -23.4276 214.164 232.392
4222.9 -4.6313 19.1526 220.755 210.678
4225.82 78.7892 44.841 197.115 200.673
4228.73 60.3652 33.2899 184.149 186.802
4231.64 -39.2847 15.737 179.143 178.196
4234.56 26.1304 -12.4563 171.295 182.815
4237.47 -24.2145 4.13777 198.006 182.347
4240.38 10.4974 -21.5783 177.739 207.772
4243.3 -51.0177 -24.3563 247.572 224.254
4246.21 -32.5486 -25.9625 247.452 254.263
4249.12 5.67897 1.71754 267.767 247.802
4252.03 32.0223 16.6299 228.187 235.008
4254.95 12.1884 8.12503 209.072 213.69
4257.86 -19.8356 -16.9085 203.81 201.81
4260.77 -43.0782 -46.1266 192.546 199.446
4263.69 -75.466 -44.3295 201.98 226.909
4266.6 -14.4443 3.47483 286.2 229.805
4269.51 100.335 40.6915 201.236 239.489
4272.42 36.1839 57.354 231.03 214.502
4275.34 35.5432 1.68533 211.239 250.03
4278.25 -66.6711 -3.95282 307.821 270.821
4281.16 19.2695 -8.40799 293.405 281.759
4284.07 22.1777 34.5756 244.051 238.946
4286.99 62.2798 35.3998 179.384 228.365
4289.9 21.7418 35.1936 261.661 235.96
4292.81 21.5592 47.1406 266.836 267.851
4295.72 98.121 77.3183 275.054 270.613
4298.63 112.275 118.543 269.949 257.532
4301.55 145.235 126.486 227.594 232.846
4304.46 121.949 149.658 200.994 217.398
4307.37 181.792 131.012 223.606 223.817
4310.28 89.2967 102.926 246.851 254.602
4313.19 37.6903 21.7268 293.35 262.165
4316.11 -61.8066 -40.7518 246.295 231.07
4319.02 -98.1392 -79.7385 153.565 244.499
4321.93 -79.2697 -84.4889 333.636 231.431
4324.84 -76.0577 -84.8241 207.091 256.848
4327.75 -99.1449 -104.002 229.817 208.133
4330.66 -136.805 -97.4203 187.491 209.666
4333.57 -56.3114 -96.2631 211.689 217.371
4336.49 -95.6735 -63.9169 252.934 244.961
4339.4 -39.7659 -47.7294 270.259 268.894
4342.31 -7.74894 -47.504 283.489 254.105
4345.22 -94.9973 -92.5793 208.566 210.046
4348.13 -174.992 -123.208 138.082 178.062
4351.04 -99.6362 -138.555 187.538 151.6
4353.95 -141.038 -141.942 129.179 152.592
4356.87 -185.151 -159.982 141.06 179.356
4359.78 -153.758 -164.778 267.829 225.394
4362.69 -155.427 -189.274 267.294 247.334
4365.6 -258.638 -213.916 206.88 201.843
4368.51 -227.685 -216.242 131.355 177.516
4371.42 -162.404 -177.882 194.312 193.795
4374.33 -143.557 -145.999 255.718 249.296
4377.24 -132.034 -136.303 297.858 252.406
4380.15 -133.316 -80.1181 203.642 239.714
4383.06 24.9961 -67.4338 217.642 192.808
4385.97 -93.9815 -66.2787 157.14 177.814
4388.88 -129.851 -99.7822 158.66 208.156
4391.79 -75.5145 -107.048 308.666 255.436
4394.7 -115.779 -111.879 298.981 290.304
4397.61 -144.343 -136.312 263.265 257.298
4400.53 -148.813 -134.167 209.649 249.149
4403.44 -109.346 -133.317 274.534 245.357
4406.35 -141.791 -119.789 251.886 279.041
4409.26 -108.231 -129.06 310.701 312.94
4412.17 -137.159 -127.679 376.232 368.216
4415.08 -137.648 -172.633 417.714 355.243
4417.99 -243.091 -191.556 271.782 345.132
4420.9 -193.928 -207.497 345.9 338.751
4423.81 -185.471 -186.612 398.572 355.723
4426.72 -180.436 -179.348 322.696 383.964
4429.63 -172.138 -162.841 430.623 408.415
4432.54 -135.947 -176.914 471.926 453.01
4435.44 -222.657 -197.27 456.481 449.495
4438.35 -233.205 -234.848 420.08 415.344
4441.26 -248.682 -257.918 369.473 416.892
4444.17 -291.866 -241.629 461.123 396.249
4447.08 -184.338 -229.069 358.151 408.738
4449.99 -211.001 -192.395 406.941 362.42
4452.9 -181.846 -196.354 322.168 369.779
4455.81 -196.215 -190.096 380.227 327.856
4458.72 -192.227 -196.915 281.174 331.864
4461.63 -202.303 -198.485 334.19 344.237
4464.54 -200.924 -226.873 417.346 343.64
4467.45 -277.394 -253.153 279.384 324.772
4470.36 -281.14 -282.889 277.587 306.514
4473.27 -290.131 -290.838 362.569 310.247
4476.17 -301.241 -295.584 290.583 333.452
4479.08 -295.379 -293.94 347.204 309.438
4481.99 -285.199 -290.557 290.528 289.046
4484.9 -291.094 -297.615 229.408 239.977
4487.81 -316.551 -312.215 199.997 224.209
4490.72 -328.999 -297.289 243.222 254.627
4493.63 -246.316 -310.258 320.663 267.354
4496.54 -355.459 -308.452 238.178 319.037
4499.44 -323.582 -332.552 398.272 317.5
4502.35 -318.616 -343.599 316.05 318.968
4505.26 -388.599 -346.486 242.584 273.085
4508.17 -332.243 -369.414 260.623 277.479
4511.08 -387.401 -344.6 329.231 300.514
4513.98 -314.155 -348.486 311.689 341.599
4516.89 -343.902 -335.547 383.876 341.121
4519.8 -348.584 -351.914 327.798 318.672
4522.71 -363.254 -320.119 244.344 293.588
4525.62 -248.517 -296.86 308.624 291.951
4528.52 -278.808 -277.14 322.886 297.96
4531.43 -304.095 -289.359 262.371 280.075
4534.34 -285.173 -287.617 254.967 254.925
4537.25 -273.584 -279.846 247.437 290.11
4540.16 -280.782 -302.95 367.927 320.963
4543.06 -354.483 -307.049 347.524 341.296
4545.97 -285.881 -326.495 308.436 366.562
4548.88 -339.122 -283.497 443.726 374.502
4551.79 -225.488 -287.046 371.345 389.464
4554.69 -296.526 -275.594 353.323 383.483
4557.6 -304.767 -314.744 425.781 391.158
4560.51 -342.939 -331.416 394.369 370.002
4563.42 -346.543 -345.001 289.856 308.759
4566.32 -345.521 -334.161 242.052 298.556
4569.23 -310.42 -327.711 363.758 337.447
4572.14 -327.192 -326.14 406.529 368.595
4575.04 -340.807 -348.338 335.497 342.327
4577.95 -377.014 -347.811 284.955 311.841
4580.86 -325.611 -352.508 315.07 340.327
4583.76 -354.898 -348.543 420.955 354.347
4586.67 -365.12 -374.098 327.015 430.314
4589.58 -402.277 -359.516 542.973 457.345
4592.48 -311.152 -334.417 502.047 475.235
4595.39 -289.824 -337.364 380.686 418.152
4598.3 -411.117 -328.177 371.721 375.055
4601.2 -283.589 -321.933 372.757 381.036
4604.11 -271.094 -305.31 398.628 392.568
4607.02 -361.246 -361.723 406.32 407.636
4609.92 -452.827 -387.695 417.959 423.762
4612.83 -349.011 -401.585 447.007 408.256
4615.73 -402.915 -368.79 359.803 387.952
4618.64 -354.443 -378.588 357.046 352.284
4621.55 -378.405 -391.153 340.003 368.429
4624.45 -440.61 -414.375 408.24 395.944
4627.36 -424.111 -409.297 439.588 400.941
4630.26 -363.171 -395.786 354.996 379.116
4633.17 -400.076 -403.782 342.763 310.082
4636.08 -448.099 -396.396 232.487 301.057
4638.98 -341.013 -401.816 327.92 292.234
4641.89 -416.337 -385.98 316.294 337.688
4644.79 -400.59 -379.365 368.849 342.631
4647.7 -321.168 -362.497 342.75 362.769
4650.6 -365.734 -317.347 376.708 398.461
4653.51 -265.14 -332.358 475.924 442.665
4656.41 -366.202 -335.174 475.363 444.375
4659.32 -374.18 -370.788 381.838 423.386
4662.22 -371.983 -380.576 412.958 391.692
4665.13 -395.565 -371.579 380.28 369.878
4668.03 -347.19 -369.365 316.395 336.221
4670.94 -365.339 -368.168 311.99 340.819
4673.84 -391.975 -383.387 394.073 351.874
4676.75 -392.848 -394.882 349.56 377.339
4679.65 -399.823 -386.87 388.384 379.444
4682.56 -367.94 -367.722 400.387 397.237
4685.46 -335.402 -364.189 402.941 390.406
4688.37 -389.224 -372.413 367.891 393.663
4691.27 -392.613 -399.913 410.156 387.721
4694.18 -417.902 -422.861 385.117 360.187
4697.08 -458.07 -445.046 285.289 321.525
4699.98 -459.165 -438.971 294.168 299.856
4702.89 -399.678 -419.742 320.112 298.054
4705.79 -400.383 -353.392 279.883 321.783
4708.7 -260.116 -343.765 365.354 340.21
4711.6 -370.796 -376.379 375.393 366.178
4714.5 -498.224 -442.209 357.786 335.943
4717.41 -457.606 -465.984 274.648 301.765
4720.31 -442.123 -444.342 272.86 268.422
4723.22 -433.297 -426.928 257.756 283.262
4726.12 -405.364 -431.647 319.17 305.547
4729.02 -456.28 -422.541 339.715 339.199
4731.93 -405.98 -442.637 358.711 339.889
4734.83 -465.653 -419.965 321.242 314.104
4737.73 -388.262 -449.003 262.359 314.636
4740.64 -493.095 -440.584 360.309 303.137
4743.54 -440.397 -456.71 286.743 321.552
4746.44 -436.637 -429.04 317.604 331.778
4749.35 -410.085 -425.03 390.987 364.415
4752.25 -428.368 -443.834 384.654 358.518
4755.15 -493.048 -448.951 299.913 299.061
4758.06 -425.439 -458.284 212.616 231.032
4760.96 -456.365 -438.567 180.566 181.096
4763.86 -433.898 -437.132 150.106 217.162
4766.76 -421.134 -429.935 320.812 273.443
4769.67 -434.773 -431.899 349.411 370.585
4772.57 -439.789 -455.434 441.531 371.903
4775.47 -491.741 -463.949 324.769 410.985
4778.38 -460.316 -513.006 466.656 360.789
4781.28 -586.962 -508.87 290.941 341.847
4784.18 -479.331 -503.849 267.945 297.536
4787.08 -445.253 -469.733 333.721 262.248
4789.98 -484.613 -492.536 185.077 249.006
4792.89 -547.741 -507.681 228.219 233.834
4795.79 -490.689 -504.675 288.205 267.332
4798.69 -475.596 -483.793 285.572 303.146
4801.59 -485.094 -458.822 335.66 313.883
4804.49 -415.775 -455.543 320.416 302.861
4807.4 -465.761 -455.483 252.506 287.768
4810.3 -484.914 -494.414 290.383 280.1
4813.2 -532.566 -517.638 297.41 265.18
4816.1 -535.436 -527.739 207.747 262.858
4819 -515.217 -518.613 283.416 277.102
4821.9 -505.187 -520.268 340.144 318.699
4824.81 -540.399 -518.075 332.538 365.617
4827.71 -508.638 -516.439 424.169 337.126
4830.61 -500.279 -510.645 254.671 323.087
4833.51 -523.017 -510.991 290.423 260.254
4836.41 -509.676 -526.547 235.667 269.171
4839.31 -546.949 -551.314 281.422 300.038
4842.21 -597.318 -674.383 383.023 360.667
4845.11 -878.883 -771.666 417.556 360.369
4848.01 -838.797 -848.999 280.528 367.237
4850.92 -829.316 -817.304 403.626 339.826
4853.82 -783.799 -753.765 335.322 347.954
4856.72 -648.179 -668.222 304.914 319.105
4859.62 -572.688 -588.234 317.08 297.684
4862.52 -543.837 -555.95 271.059 294.775
4865.42 -551.327 -559.59 296.188 307.947
4868.32 -583.605 -585.686 356.594 315.866
4871.22 -622.124 -640.849 294.816 317.555
4874.12 -716.816 -702.739 301.254 302.086
4877.02 -769.276 -764.517 310.189 279.063
4879.92 -807.459 -789.841 225.747 262.317
4882.82 -792.787 -797.393 251.015 229.616
4885.72 -791.933 -786.705 212.086 258.729
4888.62 -775.395 -764.037 313.087 288.216
4891.52 -724.782 -773.727 339.476 349.379
4894.42 -821.005 -796.408 395.574 336.838
4897.32 -843.437 -834.15 275.466 345.193
4900.22 -838.008 -843.598 364.54 315.419
4903.12 -849.35 -875.19 306.251 304.773
4906.02 -938.212 -890.142 243.529 292.111
4908.92 -882.863 -888.635 326.552 283.343
4911.81 -844.829 -848.753 279.95 309.137
4914.71 -818.567 -829.094 320.908 291.859
4917.61 -823.885 -797.878 274.718 290.331
4920.51 -751.183 -755.145 275.366 283.829
4923.41 -690.368 -750.705 301.404 304.126
4926.31 -810.564 -790.831 335.608 301.119
4929.21 -871.561 -826.705 266.346 304.842
