wavelength spec_sum spec_optimal
3525.07 132.122 114.352
3527.99 99.7983 86.8719
3530.91 95.3971 78.0116
3533.83 90.6196 86.6466
3536.75 84.363 83.4191
3539.67 111.425 92.8047
3542.59 115.758 106.267
3545.51 97.6074 94.5835
3548.43 105.58 95.0337
3551.35 102.821 105.235
3554.27 100.683 100.428
3557.19 121.078 120.569
3560.11 106.638 106.393
3563.03 99.5532 90.8924
3565.95 106.575 105.5
3568.87 95.1906 94.3025
3571.79 110.078 100.307
3574.71 103.912 105.28
3577.63 108.938 102.024
3580.55 112.196 102.964
3583.47 118.129 103.962
3586.39 114.6 97.0731
3589.31 127.705 109.732
3592.23 97.0385 90.1312
3595.15 111.178 100.6
3598.07 108.995 99.6303
3600.99 119.134 107.038
3603.91 103.901 102.049
3606.83 95.0073 92.3499
3609.75 120.142 113.439
3612.67 108.816 101.896
3615.59 132.087 121.493
3618.51 97.2878 88.2615
3621.43 118.955 108.931
3624.34 93.7454 93.98
3627.26 87.042 83.6186
3630.18 110.147 96.6063
3633.1 102.094 93.8751
3636.02 113.317 109.282
3638.94 98.4752 89.9676
3641.86 96.7952 92.1296
3644.78 93.6998 87.7619
3647.7 85.1166 81.0283
3650.62 95.8482 84.3353
3653.54 82.92 76.1641
3656.46 69.5517 69.5497
3659.38 81.6992 81.0883
3662.29 80.6883 77.7829
3665.21 74.1508 72.9191
3668.13 71.0465 69.6109
3671.05 65.8398 68.0229
3673.97 78.6709 71.806
3676.89 82.944 76.1348
3679.81 58.1091 51.3037
3682.73 74.2961 67.3121
3685.64 59.8691 52.6604
3688.56 64.9244 54.5862
3691.48 56.3287 49.7967
3694.4 67.5861 58.3291
3697.32 60.6653 59.1193
3700.24 68.0087 58.2806
3703.16 55.1046 58.1074
3706.08 62.0537 54.1788
3708.99 46.3354 45.3766
3711.91 54.3062 50.055
3714.83 55.1875 49.4856
3717.75 45.6758 41.3016
3720.67 36.7234 32.6142
3723.59 37.7427 40.1309
3726.5 50.9367 47.4723
3729.42 42.1656 37.3332
3732.34 47.4436 43.9162
3735.26 44.0382 38.3898
3738.18 37.9187 39.7108
3741.09 45.6961 37.4451
3744.01 39.7287 34.8212
3746.93 41.0192 44.1546
3749.85 33.3303 41.7278
3752.77 35.2162 30.3952
3755.68 39.3217 36.2976
3758.6 34.8374 29.3823
3761.52 47.1399 43.0764
3764.44 42.8046 36.3469
3767.36 40.1443 38.8944
3770.27 39.4644 30.9992
3773.19 35.1496 36.673
3776.11 42.6676 45.4906
3779.03 30.4863 35.2747
3781.94 42.7598 46.7916
3784.86 38.7414 42.2491
3787.78 37.6772 39.8511
3790.7 42.6511 39.2954
3793.61 37.1655 42.1826
3796.53 37.6009 38.3399
3799.45 37.5929 42.632
3802.37 41.0577 38.1098
3805.28 44.5634 44.909
3808.2 43.4356 45.8881
3811.12 37.5334 37.6442
3814.03 47.2837 46.0325
3816.95 49.8165 50.5149
3819.87 51.8493 49.9552
3822.79 49.0058 45.18
3825.7 45.8272 49.3808
3828.62 55.9138 51.4407
3831.54 51.7475 52.1331
3834.45 49.7216 47.1981
3837.37 53.6111 47.2107
3840.29 51.9498 50.1095
3843.2 49.7565 48.5715
3846.12 50.3772 47.6177
3849.04 51.0833 46.4248
3851.95 47.3551 43.9001
3854.87 51.2291 52.0855
3857.79 52.3135 50.048
3860.7 48.9969 48.7426
3863.62 56.6293 54.0438
3866.54 53.2026 53.573
3869.45 48.875 53.1143
3872.37 54.4368 57.8803
3875.29 51.0618 46.6778
3878.2 50.0976 56.1047
3881.12 64.8293 63.6779
3884.04 59.2708 57.4641
3886.95 67.8575 63.6831
3889.87 70.5706 71.1634
3892.78 71.1048 68.745
3895.7 69.9073 66.221
3898.62 66.2769 68.495
3901.53 74.0164 72.744
3904.45 77.0931 75.5824
3907.36 75.4462 73.1087
3910.28 81.6053 82.1106
3913.2 85.1137 85.6752
3916.11 81.1979 88.0748
3919.03 85.1189 88.5329
3921.94 93.4072 95.3141
3924.86 92.6872 93.9615
3927.78 90.705 89.2619
3930.69 93.1608 87.0068
3933.61 98.1942 94.6628
3936.52 93.5686 92.9622
3939.44 108.865 103.111
3942.35 97.6121 103.549
3945.27 104.367 106.005
3948.18 112.897 112.792
3951.1 110.769 112.032
3954.02 113.762 119.945
3956.93 113.145 113.242
3959.85 117.328 116.584
3962.76 115.788 114.437
3965.68 115.765 115.42
3968.59 124.642 117.369
3971.51 122.091 121.928
3974.42 120.137 119.192
3977.34 121.063 117.603
3980.25 120.063 121.703
3983.17 127.507 125.763
3986.08 122.902 127.639
3989 120.13 118.369
3991.91 126.72 127.709
3994.83 125.19 131.467
3997.74 127.049 125.302
4000.66 131.438 128.06
4003.57 124.837 125.582
4006.48 129.573 127.702
4009.4 125.838 127.642
4012.31 129.054 130.076
4015.23 136.448 131.483
4018.14 116.381 118.402
4021.06 115.467 120.596
4023.97 119.921 116.149
4026.89 122.34 118.557
4029.8 113.294 115.466
4032.71 118.84 118.454
4035.63 112.435 111.63
4038.54 113.568 113.763
4041.46 107.119 110.062
4044.37 110.986 111.865
4047.28 111.229 109.152
4050.2 109.052 107.106
4053.11 105.338 109.943
4056.03 97.4664 102.745
4058.94 106.588 105.697
4061.85 107.55 106.505
4064.77 96.9789 97.2572
4067.68 104.931 105.421
4070.6 103.747 102.059
4073.51 105.858 106.678
4076.42 111.699 111.996
4079.34 118.157 113.24
4082.25 104.915 108.069
4085.16 104.084 106.689
4088.08 104.931 105.617
4090.99 104.07 104.674
4093.9 104.677 111.963
4096.82 106.473 103.146
4099.73 114.262 114.947
4102.64 115.328 114.119
4105.56 118.828 122.218
4108.47 119.365 119.533
4111.38 116.818 122.261
4114.3 123.894 129.48
4117.21 122.781 125.106
4120.12 131.086 131.257
4123.03 121.361 128.276
4125.95 126.657 128.937
4128.86 128.675 131.959
4131.77 130.234 131.713
4134.69 130.993 131.361
4137.6 133.711 138.341
4140.51 127.716 131.105
4143.42 136.268 141.018
4146.34 139.251 140.95
4149.25 139.076 142.365
4152.16 138.793 138.913
4155.07 136.546 137.421
4157.99 136.966 137.147
4160.9 147.381 147.124
4163.81 145.253 148.164
4166.72 146.141 149.751
4169.63 140.407 140.938
4172.55 133.048 136.614
4175.46 140.016 143.079
4178.37 143.182 144.544
4181.28 131.622 134.603
4184.2 138.408 139.173
4187.11 139.166 141.893
4190.02 137.967 140.36
4192.93 132.429 137.116
4195.84 130.769 130.61
4198.75 131.625 126.967
4201.67 129.929 129.196
4204.58 122.376 123.462
4207.49 123.958 126.952
4210.4 128.052 126.418
4213.31 121.651 131.513
4216.22 119.787 123.151
4219.13 122.561 121.834
4222.05 121.028 125.471
4224.96 115.914 123.302
4227.87 121.627 124.718
4230.78 116.85 118.455
4233.69 121.765 124.63
4236.6 110.126 112.637
4239.51 125.324 127.1
4242.42 113.841 119.789
4245.34 115.348 117.525
4248.25 113.611 114.904
4251.16 113.216 115.894
4254.07 120.85 119.614
4256.98 110.081 114.89
4259.89 118.649 116.253
4262.8 115.929 117.529
4265.71 112.935 115.575
4268.62 111.151 113.21
4271.53 115.298 114.93
4274.44 107.18 112.604
4277.35 105.665 105.438
4280.26 108.343 111.089
4283.17 105.831 112.722
4286.08 100.756 104.882
4288.99 107.184 110.863
4291.9 108.697 112.974
4294.81 108.105 109.278
4297.72 106.484 108.328
4300.63 107.827 106.211
4303.54 92.5703 99.39
4306.45 93.1564 97.543
4309.36 93.0728 93.0219
4312.27 91.5694 93.3934
4315.18 92.2257 94.1387
4318.09 85.9842 94.128
4321 87.5204 91.9275
4323.91 91.7506 94.6887
4326.82 87.5826 87.4163
4329.73 85.7371 89.1585
4332.64 84.5154 89.1296
4335.55 79.8983 82.9159
4338.46 81.1972 81.0707
4341.37 72.5614 80.1544
4344.28 76.5034 80.7678
4347.19 82.5551 82.7971
4350.1 69.8605 76.5733
4353.01 76.1929 76.8478
4355.91 75.104 76.1408
4358.82 77.6654 79.9169
4361.73 76.9906 77.6564
4364.64 71.2173 75.0688
4367.55 64.1414 71.6012
4370.46 68.8608 72.3491
4373.37 66.3502 71.497
4376.28 74.647 75.5473
4379.19 64.6573 71.2502
4382.09 65.0368 68.8662
4385 72.8263 75.3626
4387.91 68.6718 68.3336
4390.82 63.6046 68.0702
4393.73 68.2803 72.1417
4396.64 77.6001 75.6446
4399.54 73.9805 75.2344
4402.45 74.7426 78.8445
4405.36 74.5459 74.3314
4408.27 72.3364 73.5528
4411.18 67.0047 77.4822
4414.08 68.6312 74.3725
4416.99 76.9676 80.557
4419.9 72.9415 77.2007
4422.81 71.0702 75.2596
4425.72 75.3807 78.6438
4428.62 84.3819 86.5275
4431.53 78.5728 84.3826
4434.44 84.615 90.5993
4437.35 83.4839 86.6489
4440.25 87.4349 90.601
4443.16 86.8013 94.1776
4446.07 86.7141 90.2919
4448.98 85.3699 89.9947
4451.88 89.8795 93.2957
4454.79 87.1825 93.8458
4457.7 90.1079 94.828
4460.61 80.8665 90.5879
4463.51 85.9232 90.2285
4466.42 90.3663 95.055
4469.33 90.5374 92.5937
4472.23 95.2867 97.7329
4475.14 90.5133 92.955
4478.05 88.5444 92.6357
4480.95 83.7363 86.6427
4483.86 85.8612 88.1686
4486.77 87.3093 90.2987
4489.67 81.8968 90.4106
4492.58 89.6949 93.1506
4495.49 82.9505 87.7895
4498.39 84.7375 86.9087
4501.3 84.9626 86.4791
4504.21 75.823 85.2044
4507.11 84.0925 87.785
4510.02 83.7575 85.441
4512.92 76.9907 83.4318
4515.83 78.6673 85.8674
4518.74 82.5378 90.8961
4521.64 79.2217 82.0685
4524.55 81.5344 85.6088
4527.45 85.7303 89.5213
4530.36 85.5826 91.9147
4533.27 85.6282 91.504
4536.17 88.5954 91.5244
4539.08 87.6687 92.6632
4541.98 85.6631 89.7187
4544.89 85.0707 95.8225
4547.79 90.4027 95.2464
4550.7 89.8549 94.7379
4553.6 92.9695 97.8669
4556.51 90.261 97.1568
4559.42 90.6666 94.9527
4562.32 93.6863 97.5787
4565.23 92.6587 101.07
4568.13 96.6434 99.1126
4571.04 92.4331 97.6516
4573.94 95.8916 104.683
4576.85 89.7886 98.9918
4579.75 97.8883 102.501
4582.66 95.8016 100.945
4585.56 94.8314 101.99
4588.46 99.4345 103.187
4591.37 96.4535 104.121
4594.27 99.5313 105.406
4597.18 100.656 105.028
4600.08 101.997 106.766
4602.99 101.417 109.19
4605.89 103.148 107.404
4608.8 102.608 104.639
4611.7 101.005 105.26
4614.6 92.2531 101.75
4617.51 99.2694 103.733
4620.41 102.867 103.758
4623.32 96.515 105.868
4626.22 102.707 108.633
4629.12 98.1331 103.865
4632.03 102.054 107.157
4634.93 98.4182 104.119
4637.83 96.5291 104.346
4640.74 95.3269 102.472
4643.64 98.9514 107.385
4646.54 92.5945 102.189
4649.45 91.8994 103.717
4652.35 94.5361 98.7868
4655.25 89.243 96.3868
4658.16 96.8182 100.786
4661.06 97.7796 103.477
4663.96 93.5993 103.426
4666.87 97.8435 104.101
4669.77 97.1888 100.071
4672.67 96.1811 102.687
4675.58 97.7759 100.704
4678.48 99.7251 107.88
4681.38 98.9559 105.345
4684.28 95.5104 99.2714
4687.19 96.7167 101.527
4690.09 91.6755 102.381
4692.99 100.566 107.753
4695.89 96.7559 101.05
4698.8 94.7383 104.242
4701.7 90.1189 98.6723
4704.6 97.3262 103.043
4707.5 91.2976 97.2605
4710.4 94.5845 97.1585
4713.31 94.1208 96.5751
4716.21 83.8222 94.5449
4719.11 94.9211 98.7756
4722.01 78.6629 91.4201
4724.91 82.7446 90.7877
4727.82 88.6821 92.6614
4730.72 84.8553 90.876
4733.62 81.9912 84.5732
4736.52 83.8633 89.2262
4739.42 79.3164 87.3966
4742.32 82.0584 87.0785
4745.22 84.4957 87.5104
4748.13 84.5135 90.156
4751.03 80.9417 83.4891
4753.93 81.3633 84.4881
4756.83 77.6397 82.7538
4759.73 77.3802 82.599
4762.63 79.6785 86.1887
4765.53 78.0074 80.9159
4768.43 80.1694 84.3423
4771.33 77.7438 82.8226
4774.23 79.714 84.099
4777.13 80.5829 82.7573
4780.04 69.779 78.9178
4782.94 75.4604 80.877
4785.84 67.2341 77.1142
4788.74 75.8303 82.3133
4791.64 76.8196 81.6064
4794.54 74.2407 77.3969
4797.44 72.7244 78.2536
4800.34 75.5909 78.6802
4803.24 70.6857 74.0595
4806.14 70.7729 78.9656
4809.04 72.767 76.1506
4811.94 71.5364 76.2685
4814.84 72.6601 78.728
4817.74 71.5132 75.4071
4820.64 70.891 75.0058
4823.54 75.1946 76.9986
4826.43 72.0127 78.4495
4829.33 66.865 70.4575
4832.23 67.9613 73.0465
4835.13 67.6593 74.1899
4838.03 64.3903 74.1083
4840.93 69.6686 72.8588
4843.83 80.0031 81.1242
4846.73 64.6137 73.8332
4849.63 75.4963 78.3809
4852.53 73.239 77.9665
4855.43 67.5316 74.5966
4858.32 68.6195 77.886
4861.22 64.9118 76.5298
4864.12 71.3552 77.7592
4867.02 72.7497 80.4379
4869.92 74.5275 79.4375
4872.82 73.9026 76.3612
4875.72 74.3689 78.7379
4878.61 72.3266 82.6692
4881.51 73.3709 83.2864
4884.41 67.1196 76.3432
4887.31 66.3249 73.4097
4890.21 74.8179 79.8784
4893.1 76.2674 82.9015
4896 75.7166 79.3329
4898.9 64.8172 76.5443
4901.8 70.4982 76.2455
4904.69 68.5524 73.5496
4907.59 64.9387 73.1242
4910.49 67.5658 72.916
4913.39 61.4034 66.776
4916.28 66.1111 71.4812
4919.18 68.2123 71.0005
4922.08 59.9737 66.2486
4924.98 58.0325 62.9469
4927.87 54.2334 58.5008
4930.77 61.1452 62.7326
4933.67 51.5771 57.6959
4936.56 63.9708 64.7102
4939.46 56.5607 58.4522
4942.36 51.6915 56.3168
4945.25 53.3751 54.4851
4948.15 52.3925 52.5684
4951.05 56.3692 57.4163
4953.94 51.8908 55.3215
4956.84 48.4197 51.3019
4959.74 51.9557 52.7724
4962.63 51.9399 53.6421
4965.53 53.7314 54.2026
4968.42 52.642 55.485
4971.32 55.3795 56.1519
4974.22 59.3003 59.6651
4977.11 51.0352 56.4499
4980.01 49.3888 54.1276
4982.9 54.2034 57.0227
4985.8 56.0026 56.6902
4988.69 57.6558 58.6186
4991.59 53.5044 55.8347
4994.49 54.7363 56.9233
4997.38 55.617 56.5231
5000.28 55.5133 57.1916
5003.17 55.7119 56.8464
5006.07 58.8595 62.2476
5008.96 57.145 58.4091
5011.86 60.9291 62.4656
5014.75 61.2257 63.3577
5017.65 62.9556 64.1697
5020.54 61.899 64.1956
5023.44 60.0308 62.1727
5026.33 63.9272 66.2337
5029.22 62.5 62.9713
5032.12 63.8013 65.0864
5035.01 61.8648 70.6319
5037.91 60.9259 66.7965
5040.8 65.5295 68.0704
5043.7 65.6779 68.3538
5046.59 66.5041 70.9269
5049.48 59.7864 67.9725
5052.38 68.3193 72.9686
5055.27 60.0619 64.1748
5058.16 67.8459 70.9682
5061.06 62.1959 64.8987
5063.95 67.4232 72.8973
5066.85 67.9351 73.2392
5069.74 65.5819 69.482
5072.63 60.3256 69.5132
5075.53 62.3219 70.7646
5078.42 63.7813 68.2296
5081.31 67.5649 72.4277
5084.21 59.883 69.9531
5087.1 58.7529 69.2583
5089.99 59.6384 69.7892
5092.88 68.8544 74.6311
5095.78 58.6164 67.8046
5098.67 62.3804 71.3112
5101.56 65.1256 71.9072
5104.45 68.3708 72.5433
5107.35 68.285 70.803
5110.24 65.5234 72.881
5113.13 63.7082 69.0709
5116.02 60.9704 73.417
5118.92 68.0917 75.1103
5121.81 67.8143 73.5676
5124.7 69.7487 77.9649
5127.59 70.2464 74.7123
5130.48 66.7607 74.8947
5133.38 65.5584 72.038
5136.27 68.6088 77.4679
5139.16 62.7665 77.9074
5142.05 63.1006 76.8043
5144.94 65.1942 72.1656
5147.83 66.2568 76.8687
5150.72 70.0263 76.0063
5153.62 70.9996 79.7685
5156.51 72.7403 77.7909
5159.4 77.9006 86.4968
5162.29 69.4903 81.6604
5165.18 74.1688 81.5559
5168.07 70.8439 77.0084
5170.96 72.9957 82.3
5173.85 68.1941 82.3596
5176.74 70.4444 80.5808
5179.63 72.5218 84.5288
5182.52 72.7797 79.5808
5185.41 75.3576 83.5287
5188.3 75.1309 86.0737
5191.19 79.187 87.1761
5194.08 75.3888 84.0546
5196.97 76.7451 84.8282
5199.86 75.7794 85.2934
5202.75 78.3628 88.2596
5205.64 77.8113 86.6953
5208.53 70.4671 85.0248
5211.42 71.4951 83.6524
5214.31 78.5614 86.1905
5217.2 78.441 86.7071
5220.09 74.3007 82.3084
5222.98 73.5476 82.9109
5225.87 78.0316 85.9809
5228.76 69.5843 82.6138
5231.65 77.8687 84.4222
5234.54 77.6701 85.0616
5237.42 78.2047 85.2959
5240.31 76.6727 85.7653
5243.2 70.6978 81.4745
5246.09 72.174 80.9811
5248.98 65.3197 80.9683
5251.87 65.4217 79.9344
5254.76 76.2239 84.4287
5257.64 77.3958 83.904
5260.53 74.7734 82.2534
5263.42 77.7731 87.2081
5266.31 79.1237 85.7432
5269.2 74.1052 80.5953
5272.08 75.3895 85.9976
5274.97 64.8167 78.4357
5277.86 71.5962 83.9667
5280.75 76.5055 84.6134
5283.63 70.7648 81.398
5286.52 75.9883 82.3188
5289.41 79.448 83.3482
5292.3 72.7437 80.3238
5295.18 67.707 81.1591
5298.07 76.3318 84.9516
5300.96 73.7923 81.9059
5303.84 68.8182 79.7743
5306.73 64.9492 76.4647
5309.62 66.512 80.8814
5312.5 72.1797 79.2866
5315.39 66.7504 75.4074
5318.28 66.6343 76.4955
5321.16 61.7334 73.5268
5324.05 59.9035 68.7254
5326.94 62.1519 67.6416
5329.82 60.5022 67.7201
5332.71 62.6276 69.1146
5335.59 57.1244 67.3418
5338.48 54.2881 63.7558
5341.37 57.0727 63.618
5344.25 52.5818 60.9428
5347.14 55.3931 61.4846
5350.02 57.1199 63.1818
5352.91 58.3727 65.4809
5355.79 54.3303 60.9119
5358.68 56.3229 61.6726
5361.56 48.1233 58.6791
5364.45 52.4543 56.0511
5367.33 45.8087 56.4114
5370.22 44.9566 55.4078
5373.1 48.1006 59.5365
5375.99 50.2221 59.0555
5378.87 52.3675 57.269
5381.76 55.2755 60.2676
5384.64 56.4967 59.854
5387.53 55.1466 58.3677
5390.41 54.099 57.4601
5393.29 56.44 57.9865
5396.18 52.5535 57.5432
5399.06 43.4619 53.6206
5401.95 55.7691 59.0449
5404.83 53.1527 59.3957
5407.71 55.4734 62.7261
5410.6 48.0539 55.2171
5413.48 53.2997 56.4908
5416.36 53.7596 55.1355
5419.25 54.718 55.1417
5422.13 50.3961 54.334
5425.01 54.1483 57.4055
5427.9 57.4288 60.6635
5430.78 57.9713 59.9211
5433.66 52.562 54.7885
5436.55 53.432 58.2585
5439.43 55.7095 59.2659
5442.31 56.0927 58.3872
5445.19 59.4512 60.6163
5448.08 56.9635 63.1842
5450.96 58.7824 60.9039
5453.84 56.7144 58.0916
5456.72 59.2268 60.2867
5459.6 55.1098 57.7184
5462.49 62.456 63.1962
5465.37 58.8134 61.5489
5468.25 54.5729 59.7853
5471.13 56.5793 62.4878
5474.01 60.019 61.4492
5476.9 50.7463 58.5785
5479.78 59.8246 58.5944
5482.66 58.9165 62.5928
5485.54 60.6215 63.1096
5488.42 56.9073 59.6514
5491.3 58.3866 61.2886
5494.18 54.8031 54.5975
5497.06 61.6588 63.4917
5499.94 54.2582 55.686
5502.82 49.0379 53.5421
5505.71 46.5879 54.0738
5508.59 56.921 55.7406
5511.47 50.193 52.4353
5514.35 52.9594 53.1136
5517.23 56.6675 57.9263
5520.11 55.5342 54.9546
5522.99 43.4089 49.4585
5525.87 45.8651 52.4869
5528.75 50.6846 49.2173
5531.63 49.7546 52.4881
5534.51 54.5192 54.2494
5537.39 56.2119 57.057
5540.26 50.5983 51.692
5543.14 48.9625 48.2771
5546.02 50.82 49.5208
5548.9 49.6282 49.7372
5551.78 47.9366 50.3699
5554.66 44.7081 49.2947
5557.54 49.8668 50.3691
5560.42 47.8858 49.7181
5563.3 49.5616 52.8716
5566.18 48.1622 53.8567
5569.05 53.1595 51.2188
5571.93 54.7067 50.2326
5574.81 58.0242 52.0292
5577.69 55.0359 46.8577
5580.57 51.5458 52.2336
5583.44 51.8159 51.9883
5586.32 51.4264 53.4739
5589.2 54.3938 58.848
5592.08 53.397 54.6247
5594.96 49.691 55.1041
5597.83 53.8757 56.3882
5600.71 52.6548 53.5683
5603.59 54.9308 63.3889
5606.47 58.8603 60.7058
5609.34 52.8688 57.0903
5612.22 58.4569 60.6095
5615.1 58.0554 59.5479
5617.97 60.259 64.0093
5620.85 59.3444 61.8705
5623.73 56.0177 63.1575
5626.6 60.8038 63.8257
5629.48 65.1736 66.1176
5632.36 57.4334 61.0695
5635.23 63.6606 65.7217
5638.11 62.5629 67.2468
5640.98 53.6836 62.5593
5643.86 59.3938 61.7353
5646.74 59.5707 66.9066
5649.61 59.6114 61.3636
5652.49 63.1832 65.3933
5655.36 55.5558 66.0012
5658.24 62.4693 62.3379
5661.11 60.7801 67.1836
5663.99 63.0981 65.9457
5666.86 55.4608 65.409
5669.74 57.2359 63.1797
5672.61 60.3333 62.9041
5675.49 55.8132 62.3163
5678.36 61.4684 65.802
5681.24 61.8702 64.4942
5684.11 62.7375 65.1587
5686.99 65.0135 69.7134
5689.86 66.5578 71.9794
5692.73 54.7108 63.6193
5695.61 63.1746 67.0345
5698.48 65.4543 66.3103
5701.36 55.1992 63.6264
5704.23 61.5699 65.0465
5707.1 63.9927 65.2404
5709.98 64.2466 67.7481
5712.85 65.5589 68.2347
5715.72 61.3655 66.1941
5718.6 65.9384 67.9074
5721.47 62.1525 65.0978
5724.34 62.1678 65.8138
5727.22 63.6109 67.8039
5730.09 62.073 67.2683
5732.96 65.2066 68.0931
5735.83 56.0683 67.9101
5738.71 61.9921 63.5167
5741.58 60.0993 62.1691
5744.45 64.722 65.3595
5747.32 63.3576 65.01
5750.2 62.9611 66.4304
5753.07 59.7396 69.2543
5755.94 62.9931 66.1453
5758.81 57.8521 63.6051
5761.68 62.9384 65.3958
5764.56 67.7174 69.9997
5767.43 65.5208 67.8461
5770.3 58.3671 65.5903
5773.17 65.096 67.6618
5776.04 58.1939 66.3932
5778.91 64.2802 69.0673
5781.78 64.5911 68.7746
5784.65 64.6866 66.7012
5787.52 63.3254 65.142
5790.39 64.1003 65.575
5793.27 55.4943 61.166
5796.14 64.2459 67.4994
5799.01 63.6241 66.2147
5801.88 61.404 66.1739
5804.75 62.3873 64.6108
5807.62 63.1743 65.2981
5810.49 58.3029 64.3606
5813.36 58.5117 60.2382
5816.23 59.957 62.557
5819.1 51.3237 58.3006
5821.96 60.3299 64.1604
5824.83 60.5482 62.4387
5827.7 59.5397 61.1547
5830.57 62.2443 63.9215
5833.44 58.6816 58.9521
5836.31 59.0231 58.7182
5839.18 55.308 59.8995
5842.05 58.8334 58.3938
5844.92 48.0538 55.4287
5847.78 54.3336 60.3174
5850.65 58.865 59.6633
5853.52 54.4984 60.7367
5856.39 53.3616 53.7975
5859.26 54.6792 54.8722
5862.12 55.0269 55.3391
5864.99 56.5011 58.1015
5867.86 48.0383 57.5789
5870.73 55.348 56.4171
5873.6 58.7007 61.5417
5876.46 55.3231 64.1752
5879.33 56.7886 60.2315
5882.2 64.4013 65.4549
5885.06 49.8461 59.1179
5887.93 52.4728 54.1232
5890.8 55.0521 57.1878
5893.66 52.5394 53.9011
5896.53 54.4416 55.3046
5899.4 60.036 60.3601
5902.26 55.563 58.6409
5905.13 57.4269 56.9402
5908 53.4439 56.9582
5910.86 55.9714 57.4256
5913.73 54.9494 55.2382
5916.59 59.7653 61.936
5919.46 49.5979 56.0264
5922.32 61.5755 63.4969
5925.19 50.5641 60.9831
5928.06 52.621 55.1748
5930.92 54.8161 61.9798
5933.79 50.4871 60.318
5936.65 59.8076 58.4202
5939.52 58.5629 60.8821
5942.38 58.9306 59.2047
5945.25 60.5745 64.3471
5948.11 57.621 58.6397
5950.97 62.0714 63.9422
5953.84 58.6329 66.3563
5956.7 57.986 61.3665
5959.57 57.8856 60.8281
5962.43 57.9176 62.597
