wavelength spec_sum
3529.28 1525.15
3532.18 1578.86
3535.09 1518.11
3538 1564.18
3540.9 1544.29
3543.81 1592.94
3546.71 1631.98
3549.62 1655.73
3552.53 1644.38
3555.43 1620.92
3558.34 1613.66
3561.24 1600.14
3564.15 1653.13
3567.06 1536.87
3569.96 1548.65
3572.87 1493.19
3575.78 1555.05
3578.68 1496.37
3581.59 1557.5
3584.5 1533.32
3587.4 1495.69
3590.31 1625.4
3593.22 1539.23
3596.12 1530.91
3599.03 1596.19
3601.94 1583.48
3604.84 1555.9
3607.75 1545.57
3610.66 1579.47
3613.56 1574.37
3616.47 1633.53
3619.38 1629.25
3622.28 1662.77
3625.19 1727.89
3628.1 1612.12
3631 1569.74
3633.91 1676.22
3636.82 1733.56
3639.72 1694.34
3642.63 1628.76
3645.54 1766.57
3648.44 1686.97
3651.35 1766.67
3654.26 1737.63
3657.17 1712.37
3660.07 1670.88
3662.98 1694.33
3665.89 1723.8
3668.79 1753.01
3671.7 1671.86
3674.61 1607.14
3677.52 1670.53
3680.42 1608.5
3683.33 1657.04
3686.24 1628.85
3689.15 1699.36
3692.05 1702.99
3694.96 1658.76
3697.87 1666.97
3700.77 1617.73
3703.68 1662.18
3706.59 1692.56
3709.5 1741.82
3712.4 1819.93
3715.31 1802.98
3718.22 1701.15
3721.13 1826.4
3724.03 1790.31
3726.94 1805.32
3729.85 1781.02
3732.76 1715.2
3735.67 1881.12
3738.57 1996.27
3741.48 1929.4
3744.39 1834.61
3747.3 1805.06
3750.2 1922.78
3753.11 2029.06
3756.02 2030.98
3758.93 2164.48
3761.83 2057.71
3764.74 1968.8
3767.65 1943.23
3770.56 2047.21
3773.47 2224.04
3776.37 2369.11
3779.28 2502.71
3782.19 2444.88
3785.1 2479.77
3788 2402.41
3790.91 2260.27
3793.82 2138.35
3796.73 2159.29
3799.64 2287.32
3802.54 2448.93
3805.45 2601.35
3808.36 2662.2
3811.27 2767.42
3814.18 2860.91
3817.08 2819
3819.99 2760.34
3822.9 2638.98
3825.81 2458.45
3828.72 2156.68
3831.62 2045.61
3834.53 2075.1
3837.44 2159.89
3840.35 2271.9
3843.26 2472.25
3846.17 2588.46
3849.07 2703.85
3851.98 2816.54
3854.89 2966.74
3857.8 3053.21
3860.71 3067.89
3863.61 3049.86
3866.52 3067.44
3869.43 2990.96
3872.34 2915.05
3875.25 2793.82
3878.15 2586.05
3881.06 2347.29
3883.97 2151.66
3886.88 2052.28
3889.79 2132.86
3892.7 2194.15
3895.6 2354.36
3898.51 2473.16
3901.42 2553.57
3904.33 2694.71
3907.24 2856.31
3910.14 2975.2
3913.05 3070.44
3915.96 3143.84
3918.87 3257.1
3921.78 3337.88
3924.69 3307.78
3927.59 3097.98
3930.5 3009.7
3933.41 3112.77
3936.32 3190.49
3939.23 3224.4
3942.14 2967.48
3945.04 2932.78
3947.95 2877.17
3950.86 2848.02
3953.77 2816.96
3956.68 2811.74
3959.59 2600.04
3962.49 2300.65
3965.4 2063.48
3968.31 2008.59
3971.22 2105.02
3974.13 2257.38
3977.04 2423.09
3979.94 2581.72
3982.85 2717.25
3985.76 2857.29
3988.67 2909.6
3991.58 3022.74
3994.48 3146.9
3997.39 3264.7
4000.3 3289.7
4003.21 3396.26
4006.12 3423.8
4009.03 3550.36
4011.93 3611.02
4014.84 3676.23
4017.75 3688.41
4020.66 3681.9
4023.57 3708.47
4026.48 3694.12
4029.38 3650.45
4032.29 3715.03
4035.2 3687.96
4038.11 3676.36
4041.02 3565.54
4043.93 3554.77
4046.83 3594.24
4049.74 3615.72
4052.65 3535.6
4055.56 3562.12
4058.47 3533.65
4061.37 3468.89
4064.28 3467.53
4067.19 3393.11
4070.1 3268.7
4073.01 3116.41
4075.92 3077.21
4078.82 3073.2
4081.73 3043.09
4084.64 3023.32
4087.55 2982.09
4090.46 2840.85
4093.36 2663.49
4096.27 2397.6
4099.18 2233
4102.09 2260.96
4105 2363.8
4107.9 2507.25
4110.81 2649.06
4113.72 2709.49
4116.63 2754.62
4119.54 2856.29
4122.44 2897.56
4125.35 2989.25
4128.26 3030.09
4131.17 3132
4134.08 3259.39
4136.98 3333.02
4139.89 3401.4
4142.8 3391.74
4145.71 3422.38
4148.62 3408.08
4151.52 3411.24
4154.43 3489.02
4157.34 3523.92
4160.25 3513.04
4163.16 3541.74
4166.06 3544.14
4168.97 3521.63
4171.88 3460.08
4174.79 3411.56
4177.69 3437.05
4180.6 3467.99
4183.51 3440.32
4186.42 3440.97
4189.33 3464.68
4192.23 3364.88
4195.14 3350.47
4198.05 3345.32
4200.96 3344.22
4203.86 3397.48
4206.77 3432.29
4209.68 3463.86
4212.59 3441.15
4215.49 3447.91
4218.4 3454.04
4221.31 3419.47
4224.22 3355.23
4227.12 3416.03
4230.03 3418.73
4232.94 3382.96
4235.85 3341.42
4238.75 3359.75
4241.66 3400.94
4244.57 3379.41
4247.48 3377.67
4250.38 3412.11
4253.29 3453.33
4256.2 3475.27
4259.11 3449.05
4262.01 3495.79
4264.92 3532.63
4267.83 3447.48
4270.73 3483.97
4273.64 3495.23
4276.55 3515.35
4279.46 3545.01
4282.36 3503.67
4285.27 3492.72
4288.18 3447.73
4291.08 3464.6
4293.99 3386.08
4296.9 3319.26
4299.81 3228.35
4302.71 3236.28
4305.62 3263.12
4308.53 3237.24
4311.43 3256.96
4314.34 3302.36
4317.25 3278.86
4320.15 3215.46
4323.06 3130.26
4325.97 3015.36
4328.87 2866.34
4331.78 2669.59
4334.69 2375.19
4337.59 2232.29
4340.5 2209.49
4343.41 2308.77
4346.31 2402.36
4349.22 2542.64
4352.13 2675.13
4355.03 2761.07
4357.94 2857.09
4360.85 2968.15
4363.75 3042.24
4366.66 3115.33
4369.57 3171.88
4372.47 3268.55
4375.38 3265.44
4378.29 3302.12
4381.19 3283.57
4384.1 3281.31
4387 3281.28
4389.91 3300.82
4392.82 3301.56
4395.72 3279.81
4398.63 3299.33
4401.53 3361.61
4404.44 3384.93
4407.35 3398.96
4410.25 3383.95
4413.16 3346.3
4416.06 3377.17
4418.97 3362.16
4421.88 3450.9
4424.78 3398.07
4427.69 3400.6
4430.59 3430.94
4433.5 3426.01
4436.41 3463
4439.31 3415.02
4442.22 3376.87
4445.12 3373.06
4448.03 3363.89
4450.93 3342.48
4453.84 3316.78
4456.74 3312.74
4459.65 3275.89
4462.56 3294.43
4465.46 3243.01
4468.37 3243.52
4471.27 3338.63
4474.18 3364.36
4477.08 3351.62
4479.99 3319.71
4482.89 3345.94
4485.8 3365.66
4488.7 3360.76
4491.61 3399.46
4494.51 3408.61
4497.42 3447.73
4500.32 3473.87
4503.23 3475.48
4506.13 3500.34
4509.04 3491.46
4511.94 3476.09
4514.85 3425.38
4517.75 3373.81
4520.66 3315.5
4523.56 3240.64
4526.47 3246.25
4529.37 3285.28
4532.28 3314.41
4535.18 3314.8
4538.08 3320.59
4540.99 3319.08
4543.89 3301.34
4546.8 3260.66
4549.7 3195.72
4552.61 3143.62
4555.51 3148.4
4558.42 3204.76
4561.32 3246.03
4564.22 3296.52
4567.13 3287.74
4570.03 3319.68
4572.94 3328.73
4575.84 3289.37
4578.74 3300.82
4581.65 3286.77
4584.55 3307.19
4587.46 3300.79
4590.36 3294.46
4593.26 3278.78
4596.17 3326.92
4599.07 3337
4601.97 3298.45
4604.88 3299.2
4607.78 3322.84
4610.68 3329.12
4613.59 3325.1
4616.49 3292.54
4619.39 3332.95
4622.3 3334.83
4625.2 3316.43
4628.1 3321.43
4631.01 3309.49
4633.91 3277.25
4636.81 3286.33
4639.72 3280.97
4642.62 3285.16
4645.52 3229.58
4648.43 3242.1
4651.33 3241.2
4654.23 3265.33
4657.13 3260.34
4660.04 3260.62
4662.94 3180.98
4665.84 3137.54
4668.75 3168.63
4671.65 3188.09
4674.55 3207.94
4677.45 3229.05
4680.36 3190.76
4683.26 3220.42
4686.16 3229.07
4689.06 3233.68
4691.96 3247.14
4694.87 3244.08
4697.77 3233.94
4700.67 3234.22
4703.57 3170.58
4706.47 3226.92
4709.38 3192.49
4712.28 3201.78
4715.18 3220.2
4718.08 3240.36
4720.98 3250.7
4723.89 3248.19
4726.79 3202.57
4729.69 3213.39
4732.59 3213
4735.49 3191.12
4738.39 3189.56
4741.29 3201.95
4744.2 3200.16
4747.1 3196.86
4750 3190.09
4752.9 3173.65
4755.8 3147.32
4758.7 3153.14
4761.6 3130.17
4764.5 3143.58
4767.4 3143
4770.31 3137.97
4773.21 3137.37
4776.11 3096.88
4779.01 3102.42
4781.91 3080.96
4784.81 3047.24
4787.71 3044.31
4790.61 3060.68
4793.51 3035.37
4796.41 3038
4799.31 3016.28
4802.21 3006.15
4805.11 2977.42
4808.01 2949.86
4810.91 2948.11
4813.81 2948.19
4816.71 2932.85
4819.61 2892.9
4822.51 2854.83
4825.41 2861.35
4828.31 2878.97
4831.21 2847.11
4834.11 2837.43
4837.01 2807.07
4839.91 2788.52
4842.81 2714.36
4845.71 2615.36
4848.61 2518.17
4851.51 2366.1
4854.41 2176.94
4857.31 1978.51
4860.2 1929.26
4863.1 1946.88
4866 2050.77
4868.9 2166.37
4871.8 2287.18
4874.7 2384.53
4877.6 2507.34
4880.5 2565.23
4883.4 2636.32
4886.29 2711.01
4889.19 2777.39
4892.09 2871.11
4894.99 2914.71
4897.89 2955.83
4900.79 2958.46
4903.68 3019.55
4906.58 3016.36
4909.48 3006
4912.38 3025.39
4915.28 2958.16
4918.17 2881.06
4921.07 2897.85
4923.97 2903.4
4926.87 2941.37
4929.77 2921.07
4932.66 2899.64
4935.56 2879.96
4938.46 2916.23
4941.36 2930.08
4944.25 2927.81
4947.15 2952.26
4950.05 2963.77
4952.94 2910.64
4955.84 2912.05
4958.74 2923.16
4961.64 2925.97
4964.53 2922.87
4967.43 2912.28
4970.33 2926.48
4973.22 2934.04
4976.12 2892.55
4979.02 2834.69
4981.91 2786.74
4984.81 2807.09
4987.71 2825.52
4990.6 2848.28
4993.5 2847.6
4996.39 2835.14
4999.29 2826.41
5002.19 2802.82
5005.08 2798.94
5007.98 2831.74
5010.87 2813
5013.77 2813.41
5016.67 2821.02
5019.56 2834.05
5022.46 2876.94
5025.35 2873.27
5028.25 2892.9
5031.14 2892.09
5034.04 2886.4
5036.93 2858.65
5039.83 2865.78
5042.72 2881.41
5045.62 2889.59
5048.51 2883.92
5051.41 2884.14
5054.3 2928.82
5057.2 2938.86
5060.09 2943.67
5062.99 2906.93
5065.88 2896.02
5068.78 2857.17
5071.67 2838.55
5074.57 2788.26
5077.46 2766.07
5080.35 2757.02
5083.25 2767.53
5086.14 2792.58
5089.04 2793.88
5091.93 2781.44
5094.82 2767.26
5097.72 2743.21
5100.61 2753.45
5103.5 2762.21
5106.4 2770.75
5109.29 2778.9
5112.18 2755.27
5115.08 2758.35
5117.97 2755.54
5120.86 2719.23
5123.76 2665.46
5126.65 2679.81
5129.54 2681.3
5132.44 2681.8
5135.33 2685.79
5138.22 2687.98
5141.11 2700.67
5144.01 2716.46
5146.9 2728.05
5149.79 2756.07
5152.68 2737.38
5155.58 2756.18
5158.47 2752.04
5161.36 2734.09
5164.25 2691.49
5167.14 2658.97
5170.04 2653.03
5172.93 2721.4
5175.82 2748.44
5178.71 2746.25
5181.6 2729.24
5184.49 2711.74
5187.38 2696.74
5190.28 2707.48
5193.17 2704.8
5196.06 2418.43
5198.95 2439.95
5201.84 2432.4
5204.73 2454.14
5207.62 2498.96
5210.51 2538.31
5213.4 2562.44
5216.29 2589.92
5219.18 2608.96
5222.08 2592.73
5224.97 2566.28
5227.86 2563.83
5230.75 2551.43
5233.64 2595.97
5236.53 2614.05
5239.42 2662.3
5242.31 2702.9
5245.2 2684.54
5248.09 2680.81
5250.97 2686.17
5253.86 2679.24
5256.75 2661.52
5259.64 2662.75
5262.53 2575.97
5265.42 2554.45
5268.31 2528.3
5271.2 2499.52
5274.09 2559.46
5276.98 2554.16
5279.87 2570.53
5282.75 2600.73
5285.64 2627.89
5288.53 2628.02
5291.42 2631.5
5294.31 2611.1
5297.2 2623.39
5300.08 2630.79
5302.97 2630.1
5305.86 2650.04
5308.75 2632.68
5311.64 2605.54
5314.52 2583.68
5317.41 2573.42
5320.3 2570.57
5323.19 2519.54
5326.07 2514.88
5328.96 2501.33
5331.85 2522.47
5334.74 2525.2
5337.62 2511.7
5340.51 2520.05
5343.4 2548.85
5346.28 2570.43
5349.17 2578.55
5352.06 2588.88
5354.94 2597.47
5357.83 2592.67
5360.72 2550.08
5363.6 2531.17
5366.49 2500.4
5369.37 2491.59
5372.26 2530.06
5375.15 2543.78
5378.03 2523.02
5380.92 2525.15
5383.8 2532.48
5386.69 2563.45
5389.57 2542.61
5392.46 2550.81
5395.35 2510.08
5398.23 2495.38
5401.12 2451.17
5404 2440.24
5406.89 2453.39
5409.77 2450.95
5412.66 2478.85
5415.54 2502.06
5418.42 2500.73
5421.31 2490.2
5424.19 2467.31
5427.08 2475.98
5429.96 2478.25
5432.85 2500.86
5435.73 2505.92
5438.61 2541.3
5441.5 2498.82
5444.38 2493.19
5447.26 2502.06
5450.15 2500.46
5453.03 2505.09
5455.91 2463.29
5458.8 2479.34
5461.68 2482.15
5464.56 2478.87
5467.45 2485.11
5470.33 2467.91
5473.21 2405.67
5476.1 2416.29
5478.98 2424.53
5481.86 2445.73
5484.74 2467.55
5487.62 2478.5
5490.51 2483.76
5493.39 2474.81
5496.27 2460.73
5499.15 2444.6
5502.03 2453.73
5504.92 2418.83
5507.8 2425.37
5510.68 2431.77
5513.56 2450.45
5516.44 2481.88
5519.32 2477.19
5522.2 2461.1
5525.09 2451.79
5527.97 2432.47
5530.85 2439.4
5533.73 2419.38
5536.61 2434.07
5539.49 2441.49
5542.37 2423.96
5545.25 2405.98
5548.13 2439
5551.01 2442.43
5553.89 2438.93
5556.77 2457.28
5559.65 2415.45
5562.53 2423.2
5565.41 2414.59
5568.29 2410.57
5571.17 2405.7
5574.05 2413.67
5576.93 2433.87
5579.81 2397.94
5582.68 2398.88
5585.56 2362.14
5588.44 2369.12
5591.32 2374.15
5594.2 2393.11
5597.08 2373.02
5599.96 2369.07
5602.83 2386.22
5605.71 2397.07
5608.59 2381.43
5611.47 2386.75
5614.35 2357.56
5617.22 2356.41
5620.1 2359.3
5622.98 2366.66
5625.86 2372.54
5628.73 2383.58
5631.61 2358.26
5634.49 2355.05
5637.37 2351.29
5640.24 2367.21
5643.12 2342.16
5646 2358.14
5648.87 2378.65
5651.75 2334.28
5654.63 2309
5657.5 2283.83
5660.38 2268.07
5663.25 2281.22
5666.13 2295.85
5669.01 2309.49
5671.88 2324.11
5674.76 2324.37
5677.63 2324.8
5680.51 2295.72
5683.38 2286.57
5686.26 2275.34
5689.13 2289.77
5692.01 2302.4
5694.88 2282.8
5697.76 2271.67
5700.63 2274.1
5703.51 2258.72
5706.38 2255.05
5709.26 2252.59
5712.13 2256.02
5715.01 2253.05
5717.88 2281.31
5720.75 2288.91
5723.63 2295.01
5726.5 2287.9
5729.38 2274.78
5732.25 2289.37
5735.12 2301.59
5738 2302.67
5740.87 2281.74
5743.74 2270.33
5746.61 2245.59
5749.49 2255.68
5752.36 2238.86
5755.23 2242.96
5758.11 2250.09
5760.98 2245.35
5763.85 2219.66
5766.72 2251.31
5769.59 2238.84
5772.47 2238.22
5775.34 2233.14
5778.21 2243.1
5781.08 2209.73
5783.95 2230.45
5786.82 2209.15
5789.7 2214.42
5792.57 2217.05
5795.44 2244.18
5798.31 2218.67
5801.18 2223.36
5804.05 2211.17
5806.92 2221.02
5809.79 2224.47
5812.66 2224.07
5815.53 2232.71
5818.4 2221.82
5821.27 2215.84
5824.14 2240.82
5827.01 2235.42
5829.88 2235.12
5832.75 2247.51
5835.62 2230.8
5838.49 2221.73
5841.36 2225.33
5844.23 2237.26
5847.1 2213.59
5849.97 2194.36
5852.83 2164.42
5855.7 2177.72
5858.57 2175.33
5861.44 2159.87
5864.31 2206.29
5867.18 2211.29
5870.04 2200.9
5872.91 2212.42
5875.78 2198.63
5878.65 2180.08
5881.52 2166.7
5884.38 2149.18
5887.25 2096.06
5890.12 2090.22
5892.98 2098.37
5895.85 2098.09
5898.72 2135.4
5901.59 2121.61
5904.45 2140.77
5907.32 2157.3
5910.18 2118.15
5913.05 2155.04
5915.92 2150.74
5918.78 2133.73
5921.65 2160.21
5924.51 2142.95
5927.38 2129.1
5930.25 2131.24
5933.11 2141.15
5935.98 2120
5938.84 2139.79
5941.71 2126.69
5944.57 2107.77
5947.44 2112.07
5950.3 2136.36
5953.17 2126.15
5956.03 2135.47
5958.89 2115.89
5961.76 2122.31
5964.62 2122.03
5967.49 2125.62
5970.35 2131.68
5973.21 2087.69
5976.08 2091.6
5978.94 2083.18
5981.8 2085.66
5984.67 2073.59
5987.53 2075.64
5990.39 2077.79
5993.26 2091.16
5996.12 2074.91
5998.98 2097.62
6001.84 2081.6
6004.71 2059.89
6007.57 2065.34
6010.43 2063.45
6013.29 2061.61
6016.16 2044.37
6019.02 2031.25
6021.88 2028.65
6024.74 2032.5
6027.6 2047.86
6030.46 2028.28
6033.32 2039.32
6036.18 2044.23
6039.05 2054.07
6041.91 2036.06
6044.77 2029.51
6047.63 2056.05
6050.49 2042.49
6053.35 2035.92
6056.21 2035.81
6059.07 2040.93
6061.93 2022.95
6064.79 2035.51
6067.65 2025.68
6070.51 2055.44
6073.37 2043.29
6076.22 2021.34
6079.08 2022.16
6081.94 2029.63
6084.8 2020.53
6087.66 2022.08
6090.52 2024.83
6093.38 2019.97
6096.24 2002.19
6099.09 2009.41
6101.95 1992.91
6104.81 1992.44
6107.67 2007.38
6110.52 1997.97
6113.38 2004
6116.24 1990.34
6119.1 1999.52
6121.95 1975.61
6124.81 1969.17
6127.67 1982.08
6130.52 1937.52
6133.38 1925.89
6136.24 1891.58
6139.09 1870.92
6141.95 1907.89
6144.81 1895.55
6147.66 1902.3
6150.52 1918.43
6153.37 1911.89
6156.23 1918.57
6159.08 1923.89
6161.94 1922.88
6164.79 1916.62
6167.65 1914.45
6170.5 1918.96
6173.36 1905.68
6176.21 1908.69
6179.07 1910.33
6181.92 1926.27
6184.78 1915.12
6187.63 1926.5
6190.48 1917.34
6193.34 1943.81
6196.19 1957.45
6199.05 1961.32
6201.9 1963.59
6204.75 1982.33
6207.61 1970.67
6210.46 1990.88
6213.31 1989.04
6216.16 1989.43
6219.02 2003.95
6221.87 2003.49
6224.72 1803.59
6227.57 1791.77
6230.43 1807.21
6233.28 1801.97
6236.13 1822.05
6238.98 1824.71
6241.83 1833.08
6244.68 1827.86
6247.53 1823.8
6250.39 1838.91
6253.24 1843.65
6256.09 1857.08
6258.94 1863.98
6261.79 1876.76
6264.64 1871.91
6267.49 1868.12
6270.34 1886.36
6273.19 1862.63
6276.04 1843.82
6278.89 1868.07
6281.74 1852.89
6284.59 1843.17
6287.44 1848.66
6290.29 1844.93
6293.13 1844.58
6295.98 1831.97
6298.83 1844.25
6301.68 1818.22
6304.53 1828.33
6307.38 1835.4
6310.23 1828.79
6313.07 1818.2
6315.92 1788.14
6318.77 1819.35
6321.62 1828.55
6324.46 1832.29
6327.31 1813.19
6330.16 1809.18
6333.01 1806.91
6335.85 1813.55
6338.7 1793.19
6341.55 1793.24
6344.39 1787.26
6347.24 1804.99
6350.08 1820.01
6352.93 1799.83
6355.78 1805.31
6358.62 1807.04
6361.47 1799.51
6364.31 1813.28
6367.16 1792.34
6370 1792.12
6372.85 1798.87
6375.69 1798.82
6378.54 1817.06
6381.38 1800.87
6384.23 1805.81
6387.07 1809.56
6389.92 1803.43
6392.76 1797.92
6395.6 1801.8
6398.45 1802.52
6401.29 1820.72
6404.13 1792.66
6406.98 1806.74
6409.82 1776.09
6412.66 1788.53
6415.51 1784.44
6418.35 1784.52
6421.19 1794.86
6424.03 1788.65
6426.88 1775.04
6429.72 1780.2
6432.56 1775.93
6435.4 1792.26
6438.24 1772.22
6441.09 1768.08
6443.93 1786.01
6446.77 1792.37
6449.61 1760.44
6452.45 1751.79
6455.29 1751.59
6458.13 1736.82
6460.97 1745.4
6463.81 1762.79
6466.65 1752.55
6469.49 1743.71
6472.33 1760.3
6475.17 1760.7
6478.01 1742.6
6480.85 1735.65
6483.69 1731.29
6486.53 1719.47
6489.37 1687.94
6492.21 1653.58
6495.05 1627.66
6497.88 1682.46
6500.72 1687.96
6503.56 1693.71
6506.4 1697.01
6509.24 1689.87
6512.07 1685.45
6514.91 1681.18
6517.75 1679.84
6520.59 1661.71
6523.42 1668.18
6526.26 1654.24
6529.1 1651.76
6531.93 1634.56
6534.77 1612.92
6537.61 1604.8
6540.44 1578.11
6543.28 1544.85
6546.12 1507.91
6548.95 1461.44
6551.79 1414.08
6554.62 1295.8
6557.46 1174.41
6560.29 1080.3
6563.13 1122.03
6565.96 1190.75
6568.8 1284.77
6571.63 1365.36
6574.47 1410.75
6577.3 1490.59
6580.14 1517.64
6582.97 1546.88
6585.8 1582.92
6588.64 1598.26
6591.47 1593.92
6594.3 1588.83
6597.14 1611.46
6599.97 1631.81
6602.8 1635.58
6605.64 1644.43
6608.47 1621.71
6611.3 1635.28
6614.13 1643.08
6616.97 1647.34
6619.8 1663.84
6622.63 1658.03
6625.46 1664.08
6628.29 1654.02
6631.12 1625.15
6633.95 1653.36
6636.79 1663.09
6639.62 1660.53
6642.45 1648.21
6645.28 1643.44
6648.11 1645.55
6650.94 1657.31
6653.77 1665.87
6656.6 1666.96
6659.43 1674.15
6662.26 1668.31
6665.09 1646.78
6667.92 1644
6670.75 1644.58
6673.57 1642.36
6676.4 1644.84
6679.23 1633.61
6682.06 1653.65
6684.89 1653.2
6687.72 1650.42
6690.54 1651.67
6693.37 1652.87
6696.2 1648.46
6699.03 1659.6
6701.86 1633.59
6704.68 1634.12
6707.51 1644.38
6710.34 1658.73
6713.16 1645.82
6715.99 1632.97
6718.82 1632.59
6721.64 1641.97
6724.47 1634.85
6727.29 1636.1
6730.12 1643.46
6732.95 1646.12
6735.77 1638.2
6738.6 1618.5
6741.42 1638.59
6744.25 1627.01
6747.07 1619.02
6749.9 1635.39
6752.72 1626.21
6755.54 1622.48
6758.37 1597.82
6761.19 1618.23
6764.02 1614.12
6766.84 1607.31
6769.66 1603.89
6772.49 1597.75
6775.31 1621.65
6778.13 1608.28
6780.96 1603.93
6783.78 1598.28
6786.6 1587.01
6789.42 1576.98
6792.25 1582.9
6795.07 1573.45
6797.89 1571.74
6800.71 1576.08
6803.53 1583.94
6806.35 1560.84
6809.18 1565.22
6812 1559.04
6814.82 1553.77
6817.64 1555.91
6820.46 1546.63
6823.28 1558.71
6826.1 1528.7
6828.92 1534.86
6831.74 1524.01
6834.56 1518.19
6837.38 1507.3
6840.2 1512.88
6843.02 1507.34
6845.84 1523.99
6848.65 1512.65
6851.47 1519.9
6854.29 1500.9
6857.11 1497.86
6859.93 1456.2
6862.75 1374.85
6865.56 1260.97
6868.38 1197.73
6871.2 1208.85
6874.02 1255.86
6876.83 1310.38
6879.65 1345.05
6882.47 1335.45
6885.28 1339.67
6888.1 1324.32
6890.92 1324.5
6893.73 1334.79
6896.55 1352.93
6899.37 1356.89
6902.18 1379.08
6905 1386.69
6907.81 1389
6910.63 1414.13
6913.44 1412.13
6916.26 1421.75
6919.07 1452.4
6921.89 1451.28
6924.7 1451.16
6927.51 1456.2
6930.33 1466.85
6933.14 1467.36
6935.96 1479.31
6938.77 1468.06
6941.58 1455.32
6944.4 1462.72
6947.21 1473
6950.02 1454.69
6952.83 1471.47
6955.65 1475.65
6958.46 1486.14
6961.27 1474.43
6964.08 1492.39
6966.89 1491.51
6969.71 1474.76
6972.52 1470.14
6975.33 1480.34
6978.14 1475.22
6980.95 1468.73
6983.76 1464.67
6986.57 1463.16
6989.38 1464.89
6992.19 1468.38
6995 1459.04
6997.81 1464.93
7000.62 1460.85
7003.43 1458.4
7006.24 1452.61
7009.05 1447.47
7011.86 1460.53
7014.67 1439.46
7017.48 1443.11
7020.28 1441.74
7023.09 1440.06
7025.9 1443.01
7028.71 1445.1
7031.52 1449.34
7034.32 1434.13
7037.13 1437.63
7039.94 1446.23
7042.74 1448.92
7045.55 1442.13
7048.36 1439.77
7051.16 1439.21
7053.97 1432.57
7056.78 1432.15
7059.58 1436.44
7062.39 1436.82
7065.19 1423.41
7068 1434.18
7070.81 1440.42
7073.61 1431.09
7076.42 1426.42
7079.22 1413.05
7082.02 1442.06
7084.83 1423.97
7087.63 1418.68
7090.44 1425.06
7093.24 1426.99
7096.04 1414.59
7098.85 1421.84
7101.65 1436.06
7104.45 1415.01
7107.26 1425.96
7110.06 1412.41
7112.86 1407.95
7115.67 1415.5
7118.47 1418.05
7121.27 1413.11
7124.07 1416.5
7126.87 1421.58
7129.67 1439.73
7132.48 1435.66
7135.28 1437.33
7138.08 1443.21
7140.88 1442.74
7143.68 1443.8
7146.48 1451.82
7149.28 1294.2
7152.08 1299.22
7154.88 1312.26
7157.68 1303.69
7160.48 1296.27
7163.28 1294.38
7166.08 1286.83
7168.88 1282.51
7171.68 1289.48
7174.47 1284.88
