wavelength spectrum_sum 3smoothed_sum
3511.88 43.3671 29.1356
3514.8 44.0397 45.6747
3517.73 49.6174 38.2863
3520.65 21.2019 47.7935
3523.57 72.5612 38.6219
3526.49 22.1025 48.5686
3529.42 51.042 59.2944
3532.34 104.739 67.8952
3535.26 47.9051 80.3801
3538.19 88.4968 61.7806
3541.11 48.9398 70.6557
3544.03 74.5305 64.6526
3546.95 70.4876 74.5414
3549.88 78.6061 71.6635
3552.8 65.8969 67.0376
3555.72 56.6099 70.0169
3558.64 87.5438 72.0869
3561.56 72.1071 59.0699
3564.49 17.5588 56.1458
3567.41 78.7713 44.4313
3570.33 36.9638 75.5487
3573.25 110.911 67.2365
3576.18 53.8348 73.7175
3579.1 56.4067 53.6785
3582.02 50.7938 45.1452
3584.94 28.2351 43.96
3587.86 52.851 64.9481
3590.79 113.758 82.4285
3593.71 80.6764 88.6605
3596.63 71.5469 71.4349
3599.55 62.0814 66.661
3602.47 66.3546 70.9889
3605.39 84.5306 71.1192
3608.32 62.4724 84.7103
3611.24 107.128 68.7707
3614.16 36.7118 70.5667
3617.08 67.8604 62.973
3620 84.3467 82.4099
3622.92 95.0225 81.6778
3625.85 65.6643 83.7116
3628.77 90.448 96.8836
3631.69 134.539 115.554
3634.61 121.676 134.934
3637.53 148.587 140.5
3640.45 151.236 140.342
3643.37 121.204 119.782
3646.3 86.9055 115.391
3649.22 138.063 112.423
3652.14 112.299 138.85
3655.06 166.187 147.329
3657.98 163.5 149.424
3660.9 118.584 134.861
3663.82 122.5 124.669
3666.74 132.924 134.794
3669.66 148.958 137.614
3672.58 130.959 138.22
3675.51 134.743 129.67
3678.43 123.308 115.208
3681.35 87.5727 115.911
3684.27 136.852 115.758
3687.19 122.848 130.617
3690.11 132.152 137.326
3693.03 156.977 139.867
3695.95 130.472 157.902
3698.87 186.255 155.844
3701.79 150.805 157.188
3704.71 134.506 141.453
3707.63 139.048 149.546
3710.55 175.083 142.91
3713.47 114.6 137.198
3716.39 121.912 124.522
3719.31 137.055 143.033
3722.23 170.131 153.224
3725.15 152.484 152.796
3728.07 135.773 133.842
3730.99 113.268 122.771
3733.91 119.274 121.704
3736.83 132.57 120.187
3739.75 108.716 131.455
3742.67 153.078 127.472
3745.59 120.621 143.066
3748.51 155.498 142.592
3751.43 151.657 168.472
3754.35 198.26 178.428
3757.27 185.368 178.936
3760.19 153.179 189.254
3763.11 229.215 188.156
3766.03 182.075 199.856
3768.95 188.279 190.341
3771.87 200.67 200.972
3774.79 213.966 204.409
3777.71 198.592 202.377
3780.63 194.572 206.058
3783.55 225.01 205.825
3786.47 197.892 213.414
3789.39 217.341 213.275
3792.31 224.591 226.348
3795.22 237.113 238.137
3798.14 252.707 239.748
3801.06 229.425 221.454
3803.98 182.232 207.703
3806.9 211.453 217.002
3809.82 257.321 224.54
3812.74 204.846 214.547
3815.66 181.476 189.419
3818.58 181.935 178.704
3821.5 172.701 181.398
3824.41 189.557 169.504
3827.33 146.253 173.548
3830.25 184.833 159.045
3833.17 146.05 165.037
3836.09 164.227 156.165
3839.01 158.217 174.428
3841.93 200.841 196.946
3844.84 231.78 237.586
3847.76 280.138 263.476
3850.68 278.51 262.58
3853.6 229.091 242.2
3856.52 218.999 249.696
3859.44 300.999 262.631
3862.35 267.895 273.75
3865.27 252.355 251.209
3868.19 233.378 229.748
3871.11 203.51 236.85
3874.03 273.663 226.424
3876.94 202.098 230.727
3879.86 216.42 212.505
3882.78 218.998 216.463
3885.7 213.971 234.735
3888.62 271.235 251.389
3891.53 268.962 277.16
3894.45 291.282 281.765
3897.37 285.05 278.725
3900.29 259.845 257.877
3903.2 228.736 266.087
3906.12 309.68 284.745
3909.04 315.818 316.08
3911.96 322.74 326.993
3914.87 342.42 329.682
3917.79 323.885 311.995
3920.71 269.68 277.38
3923.63 238.575 247.743
3926.54 234.974 193.907
3929.46 108.173 178.979
3932.38 193.79 154.684
3935.29 162.087 182.369
3938.21 191.229 203.221
3941.13 256.346 227.903
3944.05 236.134 240.106
3946.96 227.838 258.262
3949.88 310.815 287.983
3952.8 325.296 310.2
3955.71 294.488 291.868
3958.63 255.821 277.306
3961.55 281.607 234.621
3964.46 166.435 229.283
3967.38 239.808 212.036
3970.3 229.865 237.186
3973.21 241.886 276.217
3976.13 356.902 286.383
3979.05 260.363 315.378
3981.96 328.871 323.851
3984.88 382.32 354.405
3987.8 352.024 382.142
3990.71 412.081 395.646
3993.63 422.834 451.576
3996.54 519.814 478.21
3999.46 491.982 463.709
4002.38 379.33 431.499
4005.29 423.184 394.328
4008.21 380.469 419.709
4011.12 455.475 432.784
4014.04 462.409 464.346
4016.96 475.153 463.275
4019.87 452.262 493.323
4022.79 552.556 514.602
4025.7 538.989 512.139
4028.62 444.871 511.85
4031.53 551.69 512.621
4034.45 541.301 526.576
4037.37 486.735 492.491
4040.28 449.438 471.186
4043.2 477.386 477.437
4046.11 505.486 508.789
4049.03 543.494 532.242
4051.94 547.746 530.884
4054.86 501.413 539.811
4057.77 570.274 540.964
4060.69 551.206 531.756
4063.6 473.787 510.781
4066.52 507.35 494.242
4069.43 501.59 529.892
4072.35 580.736 514.269
4075.26 460.479 526.432
4078.18 538.08 531.141
4081.09 594.863 565.64
4084.01 563.976 583.29
4086.92 591.032 579.515
4089.84 583.538 586.106
4092.75 583.748 552.301
4095.67 489.617 531.942
4098.58 522.459 493.61
4101.49 468.753 508.057
4104.41 532.96 531.133
4107.32 591.685 584.319
4110.24 628.311 600.017
4113.15 580.055 602.645
4116.07 599.57 600.019
4118.98 620.432 620.524
4121.89 641.571 628.809
4124.81 624.423 620.25
4127.72 594.757 623.446
4130.64 651.156 619.424
4133.55 612.357 643.867
4136.46 668.086 613.936
4139.38 561.365 626.149
4142.29 648.995 631.702
4145.21 684.747 641.436
4148.12 590.566 638.602
4151.03 640.493 610.525
4153.95 600.515 625.903
4156.86 636.701 602.224
4159.77 569.457 640.112
4162.69 714.178 628.225
4165.6 601.04 648.907
4168.51 631.504 598.726
4171.43 563.632 648.396
4174.34 750.052 653.754
4177.25 647.576 671.628
4180.17 617.256 629.997
4183.08 625.16 629.953
4185.99 647.443 646.244
4188.91 666.128 653.162
4191.82 645.916 666.488
4194.73 687.421 650.468
4197.64 618.067 626.393
4200.56 573.69 640.313
4203.47 729.184 623.865
4206.38 568.723 636.025
4209.29 610.17 605.559
4212.21 637.785 657.91
4215.12 725.775 678.275
4218.03 671.266 682.105
4220.94 649.275 639.286
4223.86 597.318 623.246
4226.77 623.144 640.757
4229.68 701.81 653.563
4232.59 635.735 649.908
4235.51 612.18 628.553
4238.42 637.745 642.634
4241.33 677.977 673.616
4244.24 705.125 685.519
4247.15 673.454 684.261
4250.07 674.203 643.325
4252.98 582.318 644.843
4255.89 678.007 661.471
4258.8 724.088 722.574
4261.71 765.627 725.923
4264.62 688.053 692.868
4267.54 624.925 660.158
4270.45 667.497 640.966
4273.36 630.476 635.484
4276.27 608.478 647.634
4279.18 703.949 650.94
4282.09 640.395 654.196
4285 618.243 607.475
4287.92 563.788 641.936
4290.83 743.777 646.592
4293.74 632.211 632.566
4296.65 521.709 558.522
4299.56 521.644 522.265
4302.47 523.44 541.953
4305.38 580.775 556.264
4308.29 564.575 584.909
4311.2 609.376 583.909
4314.11 577.776 613.518
4317.02 653.404 644.654
4319.93 702.781 686.22
4322.85 702.476 695.023
4325.76 679.812 717.952
4328.67 771.567 748.756
4331.58 794.888 761.442
4334.49 717.871 766.616
4337.4 787.09 776.05
4340.31 823.189 774.247
4343.22 712.463 755.557
4346.13 731.017 698.726
4349.04 652.698 698.619
4351.95 712.141 698.401
4354.86 730.364 731.551
4357.77 752.147 780.731
4360.68 859.682 813.767
4363.59 829.471 829.256
4366.5 798.615 797.699
4369.41 765.011 772.092
4372.32 752.649 801.308
4375.23 886.264 791.328
4378.14 735.071 816.213
4381.04 827.305 793.23
4383.95 817.315 781.523
4386.86 699.951 787.125
4389.77 844.108 798.034
4392.68 850.042 849.231
4395.59 853.542 826.858
4398.5 776.989 812.229
4401.41 806.156 794.524
4404.32 800.428 816.654
4407.23 843.379 819.46
4410.14 814.573 802.889
4413.04 750.715 816.258
4415.95 883.486 829.824
4418.86 855.271 887.028
4421.77 922.326 884.093
4424.68 874.681 884.172
4427.59 855.509 888.925
4430.5 936.585 932.559
4433.41 1005.58 968.32
4436.31 962.791 970.842
4439.22 944.153 924.975
4442.13 867.98 920.619
4445.04 949.724 938.754
4447.95 998.559 948.137
4450.85 896.128 934.459
4453.76 908.691 882.651
4456.67 843.135 890.615
4459.58 920.018 891.079
4462.49 910.084 931.588
4465.39 964.662 958.737
4468.3 1001.46 951.217
4471.21 887.526 975.403
4474.12 1037.22 978.859
4477.02 1011.83 1025.4
4479.93 1027.14 962.559
4482.84 848.709 936.928
4485.75 934.938 892.366
4488.65 893.452 967.597
4491.56 1074.4 986.348
4494.47 991.191 995.008
4497.38 919.433 984.891
4500.28 1044.05 990.996
4503.19 1009.51 1014.03
4506.1 988.536 989.485
4509 970.412 1011.78
4511.91 1076.39 1025.01
4514.82 1028.22 1056.28
4517.72 1064.23 1038.56
4520.63 1023.24 1005.62
4523.54 929.407 981.987
4526.44 993.317 980.838
4529.35 1019.79 1001.56
4532.26 991.573 978.194
4535.16 923.217 987.525
4538.07 1047.79 994.146
4540.98 1011.44 1055.91
4543.88 1108.52 1032.36
4546.79 977.118 1036.21
4549.69 1022.99 996.075
4552.6 988.121 1021.55
4555.51 1053.54 1035.36
4558.41 1064.41 1071.08
4561.32 1095.3 1061.68
4564.22 1025.32 1053.25
4567.13 1039.12 1041.71
4570.03 1060.7 1050.87
4572.94 1052.78 1049.48
4575.85 1034.96 1064.35
4578.75 1105.3 1059.96
4581.66 1039.61 1011.46
4584.56 889.476 1012.27
4587.47 1107.73 1016.6
4590.37 1052.61 1131.98
4593.28 1235.59 1125.27
4596.18 1087.61 1165.05
4599.09 1171.94 1105.2
4601.99 1056.06 1090.77
4604.9 1044.31 1097.34
4607.8 1191.64 1146.31
4610.71 1202.98 1160.94
4613.61 1088.2 1144.34
4616.52 1141.85 1121.73
4619.42 1135.14 1145.1
4622.32 1158.3 1181.41
4625.23 1250.8 1189.96
4628.13 1160.8 1125.65
4631.04 965.343 1101.66
4633.94 1178.84 1113.81
4636.85 1197.24 1161.6
4639.75 1108.73 1173.47
4642.65 1214.44 1149.8
4645.56 1126.22 1160.34
4648.46 1140.34 1117.12
4651.37 1084.79 1126.74
4654.27 1155.09 1149.4
4657.17 1208.32 1162.09
4660.08 1122.86 1172.38
4662.98 1185.94 1117.31
4665.88 1043.12 1151.23
4668.79 1224.63 1172.28
4671.69 1249.1 1205.35
4674.59 1142.34 1160.63
4677.5 1090.44 1141.82
4680.4 1192.69 1145.49
4683.3 1153.35 1158.36
4686.21 1129.03 1133.77
4689.11 1118.91 1123.34
4692.01 1122.09 1142.23
4694.92 1185.68 1151.93
4697.82 1148.02 1173.26
4700.72 1186.08 1168.33
4703.62 1170.91 1163.9
4706.53 1134.71 1183.87
4709.43 1245.98 1197.9
4712.33 1213.01 1217.53
4715.23 1193.59 1195
4718.14 1178.39 1157.13
4721.04 1099.4 1162.17
4723.94 1208.7 1138.41
4726.84 1107.12 1132.59
4729.75 1081.94 1081.19
4732.65 1054.5 1136.91
4735.55 1274.28 1172.41
4738.45 1188.43 1205.78
4741.35 1154.63 1160.03
4744.25 1137.02 1162.75
4747.16 1196.6 1135.19
4750.06 1071.96 1152.89
4752.96 1190.12 1177.66
4755.86 1270.9 1195.2
4758.76 1124.58 1219.86
4761.66 1264.1 1212.21
4764.57 1247.95 1248.67
4767.47 1233.96 1170.13
4770.37 1028.48 1152.42
4773.27 1194.82 1105.12
4776.17 1092.05 1127.68
4779.07 1096.18 1126.37
4781.97 1190.89 1148.86
4784.87 1159.49 1195.22
4787.77 1235.29 1245.23
4790.67 1340.89 1271.95
4793.57 1239.65 1258.82
4796.47 1195.93 1231.14
4799.38 1257.84 1193.87
4802.28 1127.83 1186.78
4805.18 1174.66 1147.75
4808.08 1140.74 1178.77
4810.98 1220.91 1221.98
4813.88 1304.31 1274.51
4816.78 1298.31 1261.44
4819.68 1181.69 1256.96
4822.58 1290.89 1222.59
4825.48 1195.18 1258.02
4828.38 1288 1271.63
4831.28 1331.7 1312.56
4834.18 1317.97 1282.39
4837.07 1197.51 1233.44
4839.97 1184.86 1203.44
4842.87 1227.94 1223.17
4845.77 1256.72 1238.59
4848.67 1231.1 1194.17
4851.57 1094.67 1120.04
4854.47 1034.34 1076.46
4857.37 1100.36 1044.64
4860.27 999.229 1050.47
4863.17 1051.82 1074.11
4866.07 1171.28 1133.76
4868.97 1178.18 1180.75
4871.86 1192.79 1190.77
4874.76 1201.35 1209.78
4877.66 1235.2 1219.92
4880.56 1223.21 1194.23
4883.46 1124.28 1166.07
4886.36 1150.72 1117.49
4889.25 1077.48 1152.41
4892.15 1229.03 1161.01
4895.05 1176.52 1212.81
4897.95 1232.88 1189.4
4900.85 1158.8 1185.9
4903.74 1166 1187.56
4906.64 1237.87 1207.56
4909.54 1218.8 1225.44
4912.44 1219.63 1187.7
4915.34 1124.65 1167.05
4918.23 1156.85 1150.32
4921.13 1169.45 1161.26
4924.03 1157.48 1171.2
4926.93 1186.67 1178.32
4929.82 1190.79 1201.88
4932.72 1228.16 1259.57
4935.62 1359.74 1297.11
4938.51 1303.42 1317.1
4941.41 1288.13 1301.11
4944.31 1311.79 1298.37
4947.2 1295.18 1298.74
4950.1 1289.25 1279.55
4953 1254.2 1228.99
4955.89 1143.52 1163.98
4958.79 1094.21 1193.98
4961.69 1344.21 1249.91
4964.58 1311.31 1320.31
4967.48 1305.4 1305.86
4970.38 1300.87 1343.05
4973.27 1422.87 1326.53
4976.17 1255.86 1297.45
4979.06 1213.61 1236.87
4981.96 1241.16 1258.66
4984.86 1321.21 1278.63
4987.75 1273.51 1347.47
4990.65 1447.7 1346.49
4993.54 1318.27 1391.09
4996.44 1407.31 1355.99
4999.33 1342.41 1330.41
5002.23 1241.51 1309.34
5005.12 1344.1 1267.34
5008.02 1216.4 1241.56
5010.92 1164.17 1209.63
5013.81 1248.33 1233.44
5016.71 1287.81 1264.68
5019.6 1257.89 1306.9
5022.5 1374.99 1329.21
5025.39 1354.74 1301.57
5028.28 1175 1309.36
5031.18 1398.33 1321.27
5034.07 1390.48 1405.31
5036.97 1427.11 1373.59
5039.86 1303.18 1338.41
5042.76 1284.94 1337.77
5045.65 1425.19 1368.92
5048.55 1396.64 1392.24
5051.44 1354.89 1328.44
5054.33 1233.8 1341.13
5057.23 1434.69 1348.47
5060.12 1376.92 1368.78
5063.01 1294.73 1367.53
5065.91 1430.93 1371.31
5068.8 1388.26 1418.94
5071.7 1437.64 1393.46
5074.59 1354.49 1356.04
5077.48 1275.99 1323.35
5080.38 1339.57 1339.09
5083.27 1401.71 1343.68
5086.16 1289.76 1392.58
5089.05 1486.27 1418.15
5091.95 1478.41 1400.5
5094.84 1236.8 1353.23
5097.73 1344.47 1333.36
5100.63 1418.81 1391.15
5103.52 1410.16 1419.59
5106.41 1429.78 1407.58
5109.3 1382.79 1390.57
5112.2 1359.15 1423.68
5115.09 1529.11 1472.81
5117.98 1530.18 1501.49
5120.87 1445.19 1443.46
5123.77 1355.02 1422.2
5126.66 1466.38 1444.54
5129.55 1512.23 1450.66
5132.44 1373.36 1418.55
5135.33 1370.06 1352.57
5138.22 1314.28 1351.63
5141.12 1370.54 1322.38
5144.01 1282.32 1363.52
5146.9 1437.71 1383.44
5149.79 1430.31 1388.85
5152.68 1298.55 1387.39
5155.57 1433.31 1400.78
5158.46 1470.47 1425.93
5161.35 1374.01 1369.92
5164.25 1265.28 1250.52
5167.14 1112.26 1174.41
5170.03 1145.7 1167.87
5172.92 1245.66 1240.52
5175.81 1330.19 1250.88
5178.7 1176.78 1215.02
5181.59 1138.09 1157.69
5184.48 1158.21 1211.05
5187.37 1336.85 1284.43
5190.26 1358.24 1351.26
5193.15 1358.7 1395.52
5196.04 1469.62 1388.03
5198.93 1335.78 1315.75
5201.82 1141.86 1216.39
5204.71 1171.51 1177.28
5207.6 1218.45 1205.77
5210.49 1227.33 1197.45
5213.38 1146.56 1219.75
5216.27 1285.35 988.67
5219.16 534.104 1040.59
5222.05 1302.33 1029.03
5224.94 1250.67 1235.64
5227.83 1153.93 1231.66
5230.71 1290.39 1238.36
5233.6 1270.76 1300.51
5236.49 1340.37 1312.15
5239.38 1325.32 1087.08
5242.27 595.561 1102.12
5245.16 1385.47 1057.84
5248.05 1192.49 1302.46
5250.94 1329.43 1295.02
5253.82 1363.14 1098.3
5256.71 602.334 1050.31
5259.6 1185.47 984.887
5262.49 1166.86 1148.7
5265.38 1093.76 1176.12
5268.26 1267.73 1221.33
5271.15 1302.51 1275.12
5274.04 1255.13 1284.24
5276.93 1295.09 1251.18
5279.82 1203.31 1255.64
5282.7 1268.52 974.125
5285.59 450.546 1027.73
5288.48 1364.12 1009.42
5291.36 1213.6 1285.37
5294.25 1278.39 1271.75
5297.14 1323.28 1311.4
5300.03 1332.54 1335.15
5302.91 1349.62 1331.94
5305.8 1313.66 1106.17
5308.69 655.216 1107.75
5311.57 1354.37 1129.82
5314.46 1379.87 1324.93
5317.35 1240.56 1055.89
5320.23 547.239 990.28
5323.12 1183.05 990.162
5326 1240.2 1219.28
5328.89 1234.61 1037.17
5331.78 636.699 1037.97
5334.66 1242.61 1048.95
5337.55 1267.54 1048.87
5340.43 636.474 834.943
5343.32 600.819 839.617
5346.21 1281.56 804.247
5349.09 530.363 1015.59
5351.98 1234.86 1022.24
5354.86 1301.49 1287.97
5357.75 1327.55 1302.75
5360.63 1279.21 1325.73
5363.52 1370.44 1337.22
5366.4 1362.01 1314.13
5369.29 1209.95 1287.61
5372.17 1290.86 1246.59
5375.06 1238.97 1266.8
5377.94 1270.59 1317.87
5380.82 1444.05 1339.08
5383.71 1302.61 1367.07
5386.59 1354.56 1299.63
5389.48 1241.71 1317.16
5392.36 1355.21 1283.41
5395.25 1253.3 1300.3
5398.13 1292.4 1302.8
5401.01 1362.71 1247.55
5403.9 1087.53 1018.45
5406.78 605.12 1013.34
5409.66 1347.37 1060.35
5412.55 1228.57 1281.58
5415.43 1268.79 1275.3
5418.31 1328.53 1036.34
5421.2 511.698 789.83
5424.08 529.267 788.712
5426.96 1325.17 841.674
5429.85 670.585 1075.85
5432.73 1231.78 879.77
5435.61 736.94 1124.1
5438.49 1403.58 1179.34
5441.38 1397.49 1386.68
5444.26 1358.98 1342.33
5447.14 1270.54 1095.01
5450.02 655.518 1070.12
5452.91 1284.31 1057.93
5455.79 1233.96 1064.07
5458.67 673.937 1052.45
5461.55 1249.44 1133.36
5464.43 1476.7 1095.63
5467.32 560.761 836.685
5470.2 472.594 811.8
5473.08 1402.05 819.847
5475.96 584.899 1100.99
5478.84 1316.03 803.334
5481.72 509.069 1114.66
5484.6 1518.87 1123.88
5487.49 1343.69 1161.69
5490.37 622.506 1139.26
5493.25 1451.57 1132.44
5496.13 1323.25 1398.46
5499.01 1420.57 1367.66
5501.89 1359.16 1367.27
5504.77 1322.1 1103.33
5507.65 628.73 1099.29
5510.53 1347.06 1161.15
5513.41 1507.66 1198.33
5516.29 740.284 947.449
5519.17 594.408 912.281
5522.05 1402.15 1117.04
5524.93 1354.56 1366.55
5527.81 1342.95 1347.26
5530.69 1344.28 1082.77
5533.57 561.094 1078.18
5536.45 1329.16 1110.82
5539.33 1442.21 1401.47
5542.21 1433.05 1416.5
5545.09 1374.23 1474.96
5547.96 1617.59 1458.02
5550.84 1382.24 1493.67
5553.72 1481.18 1421.8
5556.6 1401.99 1409.6
5559.48 1345.64 1391.95
5562.36 1428.22 1349.46
5565.24 1274.51 1358.52
5568.12 1372.83 1082.55
5570.99 600.312 1106.12
5573.87 1345.23 1134.59
5576.75 1458.23 1024.36
5579.63 269.61 655.829
5582.51 239.648 589.205
5585.38 1258.36 671.102
5588.26 515.303 1046.09
5591.14 1364.61 794.373
5594.02 503.209 820.7
5596.89 594.285 827.555
5599.77 1385.17 882.007
5602.65 666.563 1142.97
5605.52 1377.16 854.14
5608.4 518.697 1083.84
5611.28 1355.66 1067.38
5614.15 1327.77 1386.99
5617.03 1477.54 1409.55
5619.91 1423.33 1440.63
5622.78 1421.02 1402.19
5625.66 1362.22 1393.31
5628.54 1396.67 1393.65
5631.41 1422.06 1429.21
5634.29 1468.9 1439.29
5637.17 1426.9 1192.85
5640.04 682.74 938.989
5642.92 707.326 905.534
5645.79 1326.53 1151.96
5648.67 1422.02 1370.04
5651.54 1361.57 1373.89
5654.42 1338.1 1305.36
5657.29 1216.42 1016.89
5660.17 496.144 775.659
5663.04 614.417 839.455
5665.92 1407.8 1146.73
5668.79 1417.97 1419.97
5671.67 1434.13 1128.79
5674.54 534.28 1101.26
5677.42 1335.37 1078.87
5680.29 1366.96 1389.3
5683.17 1465.57 1389.34
5686.04 1335.49 1374.51
5688.91 1322.47 1327.49
5691.79 1324.49 1317.02
5694.66 1304.09 1354.21
5697.54 1434.04 1343.66
5700.41 1292.84 1364.01
5703.28 1365.14 1329
5706.16 1329.01 1358.36
5709.03 1380.92 1328.68
5711.9 1276.11 1056.21
5714.78 511.608 1061.74
5717.65 1397.5 1127.98
5720.52 1474.83 1375.31
5723.4 1253.62 1350.99
5726.27 1324.52 1315.83
5729.14 1369.34 1080.75
5732.01 548.382 1144.88
5734.89 1516.91 1118.27
5737.76 1289.53 1357.45
5740.63 1265.9 1279.72
5743.5 1283.72 1271.18
5746.37 1263.92 1305.76
5749.25 1369.65 1296.78
5752.12 1256.77 1248.59
5754.99 1119.35 1208.98
5757.86 1250.81 1240.75
5760.73 1352.07 1023.06
5763.6 466.307 766.133
5766.47 480.021 740.174
5769.35 1274.19 1040.25
5772.22 1366.53 1008.76
5775.09 385.569 1036.43
5777.96 1357.2 1019.95
5780.83 1317.09 1071.78
5783.7 541.047 775.673
5786.57 468.888 783.926
5789.44 1341.84 770.152
5792.31 499.725 1041.35
5795.18 1282.49 768.591
5798.05 523.555 801.885
5800.92 599.606 819.364
5803.79 1334.93 1070.82
5806.66 1277.93 1040.11
5809.53 507.47 1003.64
5812.4 1225.53 1021.41
5815.27 1331.24 1294.65
5818.14 1327.17 1047.07
5821.01 482.8 1027.16
5823.88 1271.5 1020.99
5826.75 1308.67 1295.98
5829.61 1307.77 1352.2
5832.48 1440.16 1359.53
5835.35 1330.65 1096.26
5838.22 517.976 1032.51
5841.09 1248.9 1025.1
5843.96 1308.43 1300.47
5846.82 1344.08 1026.83
5849.69 427.974 1083.5
5852.56 1478.43 1091.88
5855.43 1369.22 1140.16
5858.3 572.825 1120.09
5861.16 1418.22 1063.58
5864.03 1199.69 1342.26
5866.9 1408.85 1013.31
5869.77 431.377 1023.34
5872.63 1229.79 739.688
5875.5 557.897 1065.41
5878.37 1408.56 1109.42
5881.23 1361.8 993.303
5884.1 209.547 924.595
5886.97 1202.43 534.377
5889.83 191.149 539.671
5892.7 225.431 562.622
5895.57 1271.29 636.754
5898.43 413.545 1003.39
5901.3 1325.33 737.817
5904.16 474.575 1053.17
5907.03 1359.6 800.37
5909.9 566.938 1128.47
5912.76 1458.87 1133.42
5915.63 1374.46 1432.45
5918.49 1464.02 1419.87
5921.36 1421.15 1485.67
5924.22 1571.84 1203.17
5927.09 616.506 914.322
5929.95 554.618 631.081
5932.82 722.119 917.512
5935.68 1475.8 937.494
5938.55 614.564 1176.01
5941.41 1437.66 1165.8
5944.28 1445.19 1103.25
5947.14 426.913 729.059
5950 315.077 764.997
5952.87 1553 1106.92
