wavelength spec_sum spec_optimal
3534.41 24.5134 17.449
3537.32 24.3535 14.7589
3540.24 17.1279 11.2137
3543.15 22.1292 20.9574
3546.06 22.2399 19.9587
3548.97 31.8062 27.9182
3551.89 17.4575 16.0499
3554.8 22.9282 18.1463
3557.71 22.966 25.1816
3560.62 28.6422 26.2602
3563.54 21.2755 12.8736
3566.45 20.2039 19.3251
3569.36 21.7966 15.6099
3572.28 12.7154 18.0186
3575.19 20.6569 15.4665
3578.1 13.9838 21.157
3581.01 18.1984 14.1022
3583.93 18.5322 18.3201
3586.84 15.1019 14.1374
3589.75 23.7575 21.0078
3592.66 20.3684 16.902
3595.58 27.2317 24.576
3598.49 21.6599 15.6599
3601.4 26.3127 25.0592
3604.31 23.9367 20.8765
3607.23 23.7562 18.258
3610.14 26.6038 21.839
3613.05 21.6295 20.6405
3615.96 19.9762 14.449
3618.88 19.4398 18.7128
3621.79 27.3935 20.9902
3624.7 26.9052 25.7205
3627.62 24.7503 15.6375
3630.53 29.801 26.8096
3633.44 26.1259 25.348
3636.35 26.5467 22.7134
3639.27 28.3551 23.6215
3642.18 24.4887 22.9678
3645.09 22.6809 20.0499
3648 28.8835 25.2776
3650.92 26.8755 26.3855
3653.83 32.0013 28.3561
3656.74 28.6035 22.2922
3659.65 24.8466 26.9419
3662.57 34.087 26.6599
3665.48 28.7032 24.3937
3668.39 34.0908 31.0239
3671.3 29.3868 27.3578
3674.22 31.8139 31.9686
3677.13 27.3371 23.8802
3680.04 27.5592 24.758
3682.95 28.1329 24.409
3685.87 24.6864 18.5805
3688.78 26.9232 24.8355
3691.69 34.8515 26.3388
3694.6 35.7916 29.5692
3697.52 32.1354 26.9774
3700.43 31.0325 22.3592
3703.34 30.1097 26.582
3706.25 27.8954 22.1842
3709.17 32.8496 27.663
3712.08 29.2926 25.2708
3714.99 28.6603 22.416
3717.9 26.1834 20.2568
3720.82 26.9528 21.7413
3723.73 30.3786 26.5932
3726.64 29.725 29.7362
3729.55 30.0588 26.181
3732.47 19.5812 19.7491
3735.38 23.1632 21.281
3738.29 22.7972 27.2659
3741.2 29.2115 27.7631
3744.11 23.6685 26.2723
3747.03 22.7658 25.5429
3749.94 23.1483 17.4335
3752.85 27.5777 24.6517
3755.76 30.6923 26.6933
3758.68 24.2428 21.7136
3761.59 29.5493 23.7392
3764.5 29.1494 25.1492
3767.41 31.9928 25.8338
3770.33 29.8088 29.0561
3773.24 32.0719 31.0568
3776.15 36.2555 30.9528
3779.06 36.8393 33.6921
3781.97 36.3155 34.6272
3784.89 35.3792 35.7342
3787.8 29.2152 28.414
3790.71 31.6935 27.0349
3793.62 30.169 26.4944
3796.54 29.8184 32.6399
3799.45 32.4884 33.1877
3802.36 32.1684 29.9809
3805.27 33.2317 32.025
3808.18 29.8209 26.5108
3811.1 30.1908 25.4126
3814.01 22.7504 19.6754
3816.92 27.0963 26.9217
3819.83 27.5554 29.653
3822.74 23.683 19.2399
3825.66 18.6274 20.9703
3828.57 18.606 18.4
3831.48 18.662 17.6484
3834.39 15.7049 15.3899
3837.3 19.7971 15.2666
3840.22 22.5327 24.1138
3843.13 26.7606 22.9147
3846.04 21.5846 21.023
3848.95 27.7062 23.3452
3851.86 21.5782 21.9598
3854.78 19.374 17.7852
3857.69 23.3807 23.1897
3860.6 27.9792 24.553
3863.51 25.2069 25.0772
3866.42 23.0296 22.0393
3869.34 20.6316 18.9656
3872.25 19.0887 18.7404
3875.16 27.9294 26.5948
3878.07 23.5959 22.9877
3880.98 22.3823 23.2
3883.89 23.2734 23.7337
3886.81 24.3627 24.051
3889.72 32.3852 26.5531
3892.63 33.3749 29.9583
3895.54 29.9775 27.9906
3898.45 30.5081 25.944
3901.36 32.3583 29.7426
3904.28 34.1757 32.518
3907.19 30.2565 29.0846
3910.1 36.1194 33.1574
3913.01 33.3827 33.5338
3915.92 31.3449 31.8688
3918.83 33.5641 30.8362
3921.75 29.9507 30.4926
3924.66 27.8426 26.0502
3927.57 22.4208 20.3062
3930.48 19.7204 19.3232
3933.39 15.3773 13.7851
3936.3 18.6591 16.4056
3939.21 25.5352 20.4006
3942.13 28.4944 26.2343
3945.04 26.4025 26.0812
3947.95 28.3819 28.3264
3950.86 33.3779 29.4007
3953.77 34.4026 32.8236
3956.68 34.4233 30.5565
3959.59 32.5293 29.8228
3962.5 27.95 27.564
3965.42 24.7599 21.7221
3968.33 24.0075 22.7102
3971.24 23.2844 22.472
3974.15 30.5331 29.7198
3977.06 29.8684 28.7472
3979.97 35.5374 32.6856
3982.88 39.4804 37.0251
3985.79 42.8935 42.2008
3988.71 46.1258 40.3
3991.62 46.3906 43.3753
3994.53 45.0177 39.8648
3997.44 45.354 39.5774
4000.35 53.6077 48.2713
4003.26 45.7585 42.2921
4006.17 50.417 48.9304
4009.08 50.7604 46.0359
4011.99 53.7884 51.9591
4014.9 50.7717 48.179
4017.81 53.4402 52.2956
4020.73 51.8617 50.8414
4023.64 50.9847 47.7574
4026.55 47.6072 45.5006
4029.46 51.1452 46.6319
4032.37 53.8886 54.2793
4035.28 50.5682 53.1325
4038.19 52.8581 50.0989
4041.1 48.1428 50.1859
4044.01 48.8104 48.6053
4046.92 48.2546 46.5299
4049.83 48.1907 45.8993
4052.74 53.9915 52.7731
4055.65 48.2201 47.097
4058.56 44.136 42.4373
4061.48 50.4231 49.3717
4064.39 45.4869 44.5681
4067.3 46.4505 44.3033
4070.21 50.7417 49.975
4073.12 47.264 47.0614
4076.03 49.9524 48.0895
4078.94 47.754 48.5232
4081.85 54.143 50.916
4084.76 52.6444 51.183
4087.67 54.5032 53.8565
4090.58 54.5253 51.0918
4093.49 56.7077 52.8256
4096.4 47.2274 45.5542
4099.31 51.6972 48.9243
4102.22 48.6492 47.4956
4105.13 53.9214 52.4203
4108.04 49.9263 49.4501
4110.95 57.3695 57.2214
4113.86 52.758 50.4986
4116.77 59.9175 59.5759
4119.68 55.5252 51.651
4122.59 55.3482 52.5696
4125.5 55.3546 53.278
4128.41 52.0585 48.4112
4131.32 54.5777 54.7638
4134.23 57.6066 56.3972
4137.14 58.9009 57.3939
4140.05 57.6202 55.0857
4142.96 48.0045 48.4408
4145.87 56.4805 57.1272
4148.78 55.8394 56.2604
4151.69 55.5549 52.8733
4154.6 56.2403 57.1385
4157.51 56.2096 55.8416
4160.42 54.4619 55.7901
4163.33 54.4098 54.9638
4166.24 56.4714 57.6932
4169.15 54.6735 55.6384
4172.06 54.5594 53.6657
4174.96 58.1766 59.5725
4177.87 54.5153 54.1356
4180.78 54.704 53.3953
4183.69 53.7938 54.8375
4186.6 56.5226 58.3643
4189.51 47.5566 47.673
4192.42 56.575 57.0492
4195.33 51.1896 49.008
4198.24 50.5334 51.9904
4201.15 50.5177 52.0627
4204.06 54.0024 53.9265
4206.97 54.4275 52.7826
4209.88 53.5229 49.5852
4212.79 55.5 55.6809
4215.69 53.4623 55.089
4218.6 55.4795 54.8199
4221.51 51.7059 52.7524
4224.42 53.8336 53.9537
4227.33 53.1077 53.2243
4230.24 51.0352 52.5331
4233.15 54.4726 55.5849
4236.06 51.1619 52.414
4238.97 54.1701 55.4667
4241.87 55.4773 55.8339
4244.78 48.8076 47.9094
4247.69 51.1729 51.8869
4250.6 49.9531 50.5772
4253.51 51.924 52.7031
4256.42 51.0571 54.0156
4259.33 52.8674 55.4192
4262.23 53.4339 54.321
4265.14 51.3555 49.1607
4268.05 45.7781 45.9055
4270.96 48.6159 50.0744
4273.87 45.6903 49.4639
4276.78 46.6379 49.8308
4279.68 47.5757 51.6924
4282.59 47.5243 50.6575
4285.5 47.2617 51.1319
4288.41 43.5955 47.6755
4291.32 44.1042 49.1608
4294.23 44.5252 49.5853
4297.13 38.9107 40.6929
4300.04 38.3612 40.6493
4302.95 39.2452 43.3457
4305.86 32.9793 34.7955
4308.77 37.0075 40.1491
4311.67 39.5795 43.3178
4314.58 46.2466 50.6387
4317.49 50.9405 53.8917
4320.4 45.2909 49.4359
4323.3 46.1986 47.0858
4326.21 48.9675 54.0963
4329.12 51.577 56.9591
4332.03 54.5357 58.4023
4334.94 51.1137 56.016
4337.84 50.1349 53.5128
4340.75 50.5357 57.907
4343.66 54.6728 57.9161
4346.57 54.468 59.8629
4349.47 51.33 55.4047
4352.38 53.2758 57.303
4355.29 54.4843 58.6122
4358.2 54.4674 61.3937
4361.1 56.8995 60.7935
4364.01 53.502 59.0483
4366.92 55.8483 61.5585
4369.82 53.7091 59.0922
4372.73 51.5364 57.5517
4375.64 50.7369 57.0251
4378.55 53.8014 59.6661
4381.45 46.3164 49.6573
4384.36 53.0338 58.4579
4387.27 47.1919 52.999
4390.17 52.2104 54.8772
4393.08 50.6698 54.5354
4395.99 53.6179 60.2392
4398.89 51.2566 56.5277
4401.8 51.6223 57.7465
4404.71 49.2295 53.9184
4407.61 51.7364 57.0744
4410.52 56.1652 62.4867
4413.43 52.8167 57.4526
4416.33 54.4388 61.5855
4419.24 55.6111 62.3003
4422.15 57.6259 64.6549
4425.05 57.1445 62.435
4427.96 56.2322 62.6507
4430.86 55.9421 63.8541
4433.77 56.8491 65.7243
4436.68 61.8803 70.082
4439.58 60.1306 69.687
4442.49 55.138 61.386
4445.4 59.5179 67.9998
4448.3 58.3374 65.2039
4451.21 56.7268 63.4609
4454.11 59.5407 66.5668
4457.02 52.3923 59.0269
4459.93 54.6518 61.6824
4462.83 58.3149 65.1647
4465.74 56.8183 64.1459
4468.64 58.2076 67.2787
4471.55 59.217 67.5245
4474.45 61.9595 69.4835
4477.36 63.8828 72.2313
4480.27 63.5458 71.5391
4483.17 64.4503 72.5737
4486.08 62.6953 70.4827
4488.98 58.5331 66.4143
4491.89 61.5393 70.2229
4494.79 63.2746 71.7355
4497.7 65.9847 74.8506
4500.6 65.5028 74.066
4503.51 67.7145 76.4474
4506.41 65.1761 74.1109
4509.32 65.1612 73.4729
4512.22 65.4165 74.2814
4515.13 61.6528 70.4326
4518.03 64.9664 72.5433
4520.94 64.0566 71.1202
4523.84 59.7693 66.5851
4526.75 60.9747 67.4375
4529.65 61.2397 70.5032
4532.56 63.2325 71.8873
4535.46 61.2215 68.9136
4538.37 60.0897 70.2282
4541.27 60.0153 67.8648
4544.18 61.8522 72.1664
4547.08 62.0316 69.6856
4549.99 59.2879 66.8249
4552.89 64.5696 73.4706
4555.79 64.8555 73.7731
4558.7 65.0189 74.6053
4561.6 62.7105 69.9976
4564.51 63.8047 73.3509
4567.41 60.7723 68.0049
4570.32 64.2257 72.5111
4573.22 64.3105 73.1438
4576.12 62.8605 71.3416
4579.03 66.3759 75.5416
4581.93 66.7671 76.1724
4584.83 65.8218 74.8751
4587.74 66.0906 74.0595
4590.64 62.0491 71.0419
4593.55 62.0635 71.7076
4596.45 61.4835 70.7185
4599.35 65.1625 74.0421
4602.26 65.0959 74.8211
4605.16 65.2213 74.9953
4608.06 65.7409 74.766
4610.97 66.8457 76.481
4613.87 66.0014 76.8244
4616.77 66.2836 75.3654
4619.68 68.4112 78.4492
4622.58 63.9546 72.6976
4625.48 67.8994 79.3949
4628.39 64.4989 74.2651
4631.29 66.5763 77.8126
4634.19 61.7221 71.9711
4637.1 67.1341 77.0115
4640 61.3096 70.389
4642.9 65.0491 74.5021
4645.8 66.8138 75.2403
4648.71 64.137 74.0244
4651.61 65.1188 74.8262
4654.51 65.1835 76.3716
4657.42 62.6125 71.9084
4660.32 68.2972 78.7397
4663.22 60.8426 70.7406
4666.12 62.2831 70.8626
4669.02 61.782 73.0148
4671.93 63.5197 73.9668
4674.83 63.7267 72.7441
4677.73 64.1782 74.6823
4680.63 64.0157 72.5108
4683.54 60.4582 71.8007
4686.44 63.0723 72.4365
4689.34 67.3236 76.7455
4692.24 63.738 76.3089
4695.14 64.1346 75.8875
4698.05 61.6919 72.0615
4700.95 60.8895 71.0021
4703.85 60.0803 70.5058
4706.75 60.2198 70.8807
4709.65 62.4175 72.1439
4712.55 65.4159 77.2635
4715.46 64.5033 73.4611
4718.36 66.7933 78.2556
4721.26 64.6205 76.5766
4724.16 66.8172 78.6867
4727.06 65.1039 77.4487
4729.96 64.7526 75.1999
4732.86 65.4318 76.3874
4735.76 66.8621 77.8956
4738.67 65.5687 76.4015
4741.57 67.2822 78.6707
4744.47 65.932 76.4415
4747.37 68.6531 81.1312
4750.27 68.023 80.2858
4753.17 66.2825 78.5972
4756.07 66.6785 76.8811
4758.97 65.1934 75.6885
4761.87 63.2239 73.4056
4764.77 64.389 75.3556
4767.67 69.0541 80.7145
4770.57 64.7038 75.5314
4773.47 66.7895 78.0142
4776.37 63.9056 75.6487
4779.27 69.2072 80.5427
4782.17 66.1361 76.8448
4785.07 63.7217 75.1662
4787.97 61.199 70.9134
4790.87 62.3052 74.1711
4793.77 65.6298 78.3645
4796.67 66.7099 78.1771
4799.57 66.7104 78.1972
4802.47 65.4336 76.3411
4805.37 66.5056 78.3626
4808.27 65.2543 76.6547
4811.17 68.8545 80.7043
4814.07 64.7117 76.3129
4816.97 64.2841 77.5618
4819.87 65.1732 76.9581
4822.77 62.9381 74.3603
4825.67 66.6664 77.9106
4828.57 66.1922 77.9367
4831.47 65.559 76.3547
4834.37 68.3541 80.9243
4837.27 67.4116 79.633
4840.16 65.3574 79.0533
4843.06 67.0039 80.6921
4845.96 70.0696 83.5354
4848.86 66.9552 80.3818
4851.76 65.1458 78.5571
4854.66 59.6457 71.8331
4857.56 61.1539 72.8361
4860.46 58.3676 70.1048
4863.35 58.4856 70.4161
4866.25 62.301 74.3824
4869.15 63.4935 75.4883
4872.05 62.8379 75.0597
4874.95 62.0572 74.5129
4877.85 62.7058 76.3036
4880.74 65.6031 79.5464
4883.64 68.4 82.1444
4886.54 68.6778 81.1539
4889.44 66.6917 81.2672
4892.34 69.5407 84.9848
4895.23 66.6222 81.9428
4898.13 68.7318 84.8862
4901.03 73.1747 90.0607
4903.93 68.9913 86.4425
4906.82 68.5797 83.2369
4909.72 67.3788 82.1186
4912.62 67.326 81.3711
4915.52 65.3945 79.3878
4918.41 65.1812 80.6966
4921.31 69.4836 84.3435
4924.21 68.8136 83.3064
4927.1 71.1962 85.8768
4930 68.1923 84.771
4932.9 68.1404 81.6009
4935.79 66.0743 80.2427
4938.69 67.9111 81.4799
4941.59 66.8072 81.0958
4944.48 69.3181 84.717
4947.38 68.5255 84.5718
4950.28 70.3424 84.262
4953.17 63.7655 78.6021
4956.07 67.4481 82.5567
4958.97 66.2266 79.7537
4961.86 65.8857 80.867
4964.76 67.3506 82.3999
4967.66 72.0239 87.5332
4970.55 65.8459 79.424
4973.45 66.9924 83.3748
4976.34 66.7177 82.0085
4979.24 65.0201 77.8874
4982.13 65.848 78.3616
4985.03 64.9915 77.9487
4987.93 66.141 81.9574
4990.82 63.5307 79.1252
4993.72 66.5099 80.8962
4996.61 69.1546 85.0927
4999.51 65.7339 80.0546
5002.4 66.3925 80.7618
5005.3 64.4933 76.3432
5008.19 64.7217 78.6515
5011.09 64.283 75.9908
5013.98 64.9038 77.9291
5016.88 64.6577 78.6884
5019.77 64.2031 76.1907
5022.67 65.5234 78.6974
5025.56 66.7291 77.9789
5028.46 66.6308 79.9816
5031.35 66.3721 79.6086
5034.25 67.3457 81.505
5037.14 63.3305 77.4976
5040.04 65.2316 79.7938
5042.93 69.4769 82.1032
5045.82 64.4965 76.958
5048.72 65.2087 77.7427
5051.61 67.7451 80.6135
5054.51 69.3214 83.1903
5057.4 69.8414 83.2343
5060.29 69.6806 83.8402
5063.19 67.027 79.2817
5066.08 70.2211 86.6036
5068.97 69.2731 84.8158
5071.87 67.2978 83.3349
5074.76 66.4039 81.9195
5077.65 66.4149 80.95
5080.55 65.532 81.6196
5083.44 70.6119 85.4073
5086.33 66.3896 82.0018
5089.23 68.7259 83.7994
5092.12 68.6463 83.765
5095.01 65.5995 79.5428
5097.91 69.2565 85.3345
5100.8 67.2312 83.167
5103.69 66.2942 82.676
5106.58 67.3224 82.4437
5109.48 68.8306 85.3336
5112.37 68.3467 84.9819
5115.26 67.9544 84.6394
5118.15 64.9114 81.3738
5121.05 66.687 83.4902
5123.94 65.0073 81.2443
5126.83 65.4268 81.6695
5129.72 68.618 85.4541
5132.62 70.7066 87.983
5135.51 65.8244 82.6871
5138.4 66.5188 83.0001
5141.29 66.8646 84.4196
5144.18 65.8168 80.6987
5147.07 64.4672 80.3668
5149.97 65.1314 80.862
5152.86 66.3052 82.7827
5155.75 63.3439 79.247
5158.64 65.6456 80.6971
5161.53 63.355 78.8933
5164.42 62.142 77.0662
5167.31 55.5759 70.4917
5170.2 57.8084 73.2742
5173.09 59.4029 74.3798
5175.99 63.0407 78.3821
5178.88 61.6373 77.6558
5181.77 58.3515 73.4376
5184.66 62.6502 78.9772
5187.55 65.4038 82.5241
5190.44 62.7126 78.5934
5193.33 68.3877 85.2833
5196.22 65.6487 83.1635
5199.11 70.0194 87.1986
5202 67.0997 84.4215
5204.89 66.8208 84.2223
5207.78 68.6954 85.7444
5210.67 72.657 90.9921
5213.56 72.6197 90.3037
5216.45 71.2769 88.6897
5219.34 73.3157 92.8821
5222.23 68.2111 84.2835
5225.12 67.3149 84.3502
5228.01 69.6445 86.0226
5230.9 69.8409 87.7182
5233.78 68.8119 86.2201
5236.67 71.5861 89.974
5239.56 76.9327 96.5872
5242.45 72.2874 91.7965
5245.34 71.6615 89.1501
5248.23 72.1266 90.6304
5251.12 69.4477 86.7511
5254.01 71.9066 92.3497
5256.9 73.6669 93.0293
5259.78 71.2176 88.4682
5262.67 67.275 82.9326
5265.56 65.197 82.2683
5268.45 66.047 84.302
5271.34 66.6197 83.5505
5274.22 70.1088 87.2879
5277.11 71.8995 90.5268
5280 70.8949 89.5678
5282.89 68.1724 86.2508
5285.78 72.2173 90.8273
5288.66 74.0242 93.6485
5291.55 74.3735 93.5743
5294.44 70.8494 89.7568
5297.33 73.5745 93.0759
5300.21 74.3699 93.0898
5303.1 72.4651 91.1033
5305.99 75.518 94.5633
5308.87 76.8994 97.2371
5311.76 76.7688 95.971
5314.65 75.8293 96.4238
5317.54 73.3238 92.6427
5320.42 71.0936 88.6117
5323.31 71.5457 88.3322
5326.2 72.0411 89.738
5329.08 71.7226 89.6618
5331.97 71.1742 89.3849
5334.85 70.9419 88.3291
5337.74 70.3597 89.0964
5340.63 74.4683 91.8545
5343.51 70.6887 89.1481
5346.4 73.1265 91.4876
5349.28 70.9054 89.3162
5352.17 73.4785 92.2032
5355.06 73.9656 92.7697
5357.94 77.3482 95.3617
5360.83 74.1974 93.3364
5363.71 70.8632 89.201
5366.6 71.1916 88.3499
5369.48 70.5602 87.2366
5372.37 73.4171 92.1123
5375.25 72.0619 90.6852
5378.14 72.5486 89.1212
5381.02 73.1575 91.83
5383.91 77.1977 95.6331
5386.79 71.8733 90.3964
5389.68 73.6042 91.0895
5392.56 72.0119 89.0876
5395.45 67.7178 83.4994
5398.33 71.9411 89.4504
5401.21 69.8661 85.7981
5404.1 68.6513 84.4111
5406.98 68.4344 84.3746
5409.87 70.1279 86.632
5412.75 72.7174 90.4053
5415.63 74.4624 94.4114
5418.52 72.2505 89.6423
5421.4 74.4222 92.3601
5424.28 73.0944 93.0552
5427.17 74.0465 90.4771
5430.05 71.9005 88.3693
5432.93 68.0352 84.8729
5435.82 72.8842 88.9959
5438.7 76.2554 92.9322
5441.58 72.7358 90.1191
5444.47 69.2694 85.4801
5447.35 77.0002 93.8365
5450.23 73.4521 90.3683
5453.11 72.9141 89.5463
5456 71.7883 88.4431
5458.88 71.8851 86.2552
5461.76 71.9657 87.7877
5464.64 72.9804 90.6921
5467.53 75.3403 91.8793
5470.41 72.0281 91.3935
5473.29 73.8753 90.0116
5476.17 67.8556 84.988
5479.05 71.2199 87.6415
5481.94 72.112 87.9664
5484.82 74.2898 91.0055
5487.7 71.4779 87.0372
5490.58 74.5393 91.705
5493.46 73.1148 89.5658
5496.34 74.3508 91.2493
5499.22 65.3278 86.1109
5502.1 63.18 83.2904
5504.99 64.7917 84.9894
5507.87 66.2553 87.5246
5510.75 69.8731 91.8887
5513.63 66.2586 89.2032
5516.51 69.4361 92.347
5519.39 68.3222 91.2044
5522.27 69.6362 93.7917
5525.15 66.2818 89.7483
5528.03 63.7164 84.3171
5530.91 69.0467 92.2041
5533.79 67.7742 90.5913
5536.67 63.6047 88.9175
5539.55 68.6663 91.7491
5542.43 67.8115 90.7473
5545.31 69.0155 91.4067
5548.19 68.2841 91.2377
5551.07 65.8939 86.8898
5553.95 65.7374 91.1183
5556.83 66.0486 87.7961
5559.7 67.2791 93.5167
5562.58 66.3422 88.0466
5565.46 67.8397 90.053
5568.34 67.9436 89.609
5571.22 66.487 88.0449
5574.1 68.0181 89.958
5576.98 57.7921 85.2996
5579.86 62.7789 81.1847
5582.73 69.3336 90.7884
5585.61 58.057 84.4073
5588.49 58.8935 86.3514
5591.37 61.8994 84.2676
5594.25 67.7074 90.0124
5597.12 64.2032 86.9304
5600 69.0543 92.5099
5602.88 66.7913 88.3575
5605.76 67.9226 92.7211
5608.63 69.6391 95.0383
5611.51 68.0675 90.5838
5614.39 66.3219 87.727
5617.27 67.7446 90.897
5620.14 71.4199 94.9224
5623.02 68.7041 91.8896
5625.9 66.771 91.6718
5628.77 71.2704 93.9741
5631.65 68.6746 91.845
5634.53 66.6188 89.1804
5637.4 68.9956 91.0095
5640.28 63.2603 87.5667
5643.15 69.618 93.0977
5646.03 69.4935 93.0192
5648.91 69.7384 92.2526
5651.78 67.6381 90.4018
5654.66 66.7529 89.9135
5657.53 62.5856 86.5662
5660.41 64.728 88.1491
5663.29 67.2299 89.8253
5666.16 64.1705 87.6383
5669.04 72.0539 95.944
5671.91 67.2638 89.1129
5674.79 66.997 89.2766
5677.66 68.9055 93.036
5680.54 66.4464 89.0335
5683.41 67.0826 88.856
5686.29 68.919 91.2814
5689.16 68.6736 91.0643
5692.03 63.7604 88.8917
5694.91 65.7537 91.0738
5697.78 65.9149 89.9293
5700.66 65.4812 91.1493
5703.53 65.68 87.3754
5706.4 64.9177 87.1606
5709.28 65.1841 90.5437
5712.15 65.1621 87.5322
5715.03 66.5963 88.6591
5717.9 70.7681 93.9585
5720.77 67.0631 88.1803
5723.65 66.8747 88.9564
5726.52 68.8 91.8078
5729.39 68.5825 92.1087
5732.27 66.6061 91.2843
5735.14 71.498 96.8582
5738.01 68.8704 92.6985
5740.88 69.8746 98.0226
5743.76 67.8849 93.0934
5746.63 68.2417 92.7289
5749.5 62.5932 88.2579
5752.37 69.6304 93.4505
5755.24 68.1864 91.9362
5758.12 67.8991 91.1467
5760.99 66.9864 90.3799
5763.86 68.6921 92.0366
5766.73 69.991 93.3839
5769.6 66.337 86.8809
5772.48 67.7369 90.4588
5775.35 68.169 90.3079
5778.22 65.9018 89.7256
5781.09 62.4488 84.9236
5783.96 64.2774 85.0924
5786.83 67.7668 88.2897
5789.7 66.9808 87.6555
5792.57 66.7865 92.4749
5795.44 65.3833 86.3069
5798.31 66.7749 88.1794
5801.18 68.7196 90.9006
5804.05 70.1216 93.9999
5806.92 66.8497 88.7263
5809.79 69.8462 92.6003
5812.66 68.3177 90.5402
5815.53 70.5429 98.688
5818.4 68.2593 92.7062
5821.27 68.4435 93.3463
5824.14 68.7146 91.2269
5827.01 70.2988 92.7282
5829.88 70.0548 93.5993
5832.75 68.5148 90.8735
5835.62 71.1528 94.6957
5838.49 70.2588 92.569
5841.36 68.6027 90.741
5844.23 69.8943 92.2031
5847.09 70.0525 92.2485
5849.96 65.2428 88.9694
5852.83 69.7081 93.3761
5855.7 69.87 92.1391
5858.57 69.7342 91.3151
5861.44 70.3935 92.3447
5864.3 68.7035 90.6649
5867.17 71.2053 93.5416
5870.04 73.0448 96.4025
5872.91 69.2535 90.6881
5875.77 72.1353 95.9753
5878.64 63.1755 87.8881
5881.51 68.2073 89.7774
5884.38 64.3985 83.6491
5887.24 57.2729 80.0526
5890.11 53.1477 77.3551
5892.98 64.4623 83.3488
5895.84 66.5459 88.2891
5898.71 59.9633 85.3952
5901.58 63.1423 88.6599
5904.44 65.4481 86.1758
5907.31 65.0964 91.2521
5910.17 66.0579 86.9642
5913.04 65.0156 89.9716
5915.91 65.4511 90.2091
5918.77 66.1619 87.1427
5921.64 65.71 88.3326
5924.5 68.4693 92.4993
5927.37 65.5236 86.0719
5930.23 71.4423 94.941
5933.1 67.2497 93.9611
5935.96 71.8326 95.2712
5938.83 71.8936 95.1738
5941.69 69.0374 91.7739
5944.56 65.893 91.3397
5947.42 65.8728 91.099
5950.29 66.4858 86.9484
5953.15 67.063 87.4195
5956.02 67.0733 92.2599
5958.88 66.7991 87.2164
5961.74 67.9551 88.7723
5964.61 70.2921 92.1168
5967.47 69.5924 90.3868
5970.34 65.1735 88.6383
5973.2 65.3957 85.8852
