wavelength spec_sum
3527.89 50.268
3530.79 43.6205
3533.7 47.7285
3536.6 54.6516
3539.51 57.7336
3542.42 66.852
3545.32 54.7795
3548.23 52.2053
3551.13 43.7002
3554.04 49.0478
3556.95 59.3226
3559.85 45.6605
3562.76 43.4454
3565.67 31.2376
3568.57 43.1978
3571.48 44.8638
3574.39 35.6228
3577.29 33.8694
3580.2 38.1162
3583.11 28.5429
3586.01 41.1296
3588.92 52.2206
3591.83 59.2256
3594.73 58.1121
3597.64 55.0231
3600.55 55.3325
3603.45 59.0991
3606.36 45.3158
3609.27 58.4542
3612.18 47.0081
3615.08 49.8175
3617.99 49.9103
3620.9 52.2677
3623.8 67.3183
3626.71 63.3131
3629.62 49.8427
3632.53 63.596
3635.43 62.3979
3638.34 59.4952
3641.25 59.7684
3644.15 57.9375
3647.06 58.812
3649.97 62.3028
3652.88 68.586
3655.78 61.8675
3658.69 70.2663
3661.6 66.9594
3664.51 69.2467
3667.41 66.3553
3670.32 67.9452
3673.23 67.4663
3676.14 65.8859
3679.04 65.7892
3681.95 54.3259
3684.86 63.2562
3687.77 65.3967
3690.68 64.2618
3693.58 66.5464
3696.49 66.9534
3699.4 64.3967
3702.31 53.8609
3705.22 57.1603
3708.12 70.4067
3711.03 72.5636
3713.94 61.4852
3716.85 53.4628
3719.75 58.4334
3722.66 59.2291
3725.57 69.4156
3728.48 51.605
3731.39 51.6617
3734.3 51.812
3737.2 53.0477
3740.11 51.7032
3743.02 47.1212
3745.93 42.5737
3748.84 46.1515
3751.74 54.5091
3754.65 58.8959
3757.56 62.1708
3760.47 53.6333
3763.38 68.1405
3766.29 70.0995
3769.19 74.8873
3772.1 75.636
3775.01 76.8563
3777.92 72.7402
3780.83 78.333
3783.74 72.1143
3786.65 70.4941
3789.55 71.6073
3792.46 71.6335
3795.37 66.0346
3798.28 66.2896
3801.19 70.0371
3804.1 66.8792
3807.01 62.9204
3809.91 70.5392
3812.82 54.5346
3815.73 53.876
3818.64 49.8311
3821.55 40.2742
3824.46 43.0074
3827.37 41.1919
3830.27 39.1431
3833.18 39.3029
3836.09 41.8983
3839 43.4821
3841.91 50.9362
3844.82 60.2085
3847.73 53.1062
3850.64 59.7842
3853.55 48.0635
3856.45 53.5872
3859.36 49.3058
3862.27 53.6081
3865.18 53.0399
3868.09 52.7895
3871 48.7682
3873.91 52.069
3876.82 50.1635
3879.73 50.5771
3882.63 50.0534
3885.54 55.9483
3888.45 66.1757
3891.36 65.3482
3894.27 67.9641
3897.18 64.7977
3900.09 61.2137
3903 63.6804
3905.91 70.2929
3908.82 71.4821
3911.72 77.1932
3914.63 74.8711
3917.54 65.1312
3920.45 63.215
3923.36 50.6069
3926.27 45.9808
3929.18 36.2416
3932.09 32.2438
3935 39.5307
3937.91 45.1493
3940.82 53.1239
3943.72 53.3403
3946.63 63.8004
3949.54 66.3517
3952.45 71.5576
3955.36 67.6483
3958.27 60.5372
3961.18 54.2958
3964.09 43.7145
3967 41.4492
3969.91 41.4335
3972.82 59.3872
3975.73 64.8257
3978.63 67.8848
3981.54 78.9964
3984.45 83.8764
3987.36 96.213
3990.27 100.481
3993.18 101.493
3996.09 98.4437
3999 104.978
4001.91 107.898
4004.82 103.798
4007.73 111.841
4010.64 105.904
4013.54 95.146
4016.45 94.046
4019.36 92.3651
4022.27 98.6553
4025.18 90.3628
4028.09 88.6894
4031 82.9938
4033.91 91.8133
4036.82 87.4084
4039.73 86.1969
4042.64 84.4698
4045.55 81.3588
4048.46 85.565
4051.36 88.832
4054.27 86.0143
4057.18 87.2526
4060.09 81.9258
4063 80.1966
4065.91 83.9443
4068.82 84.5747
4071.73 82.038
4074.64 82.7593
4077.55 84.1615
4080.46 93.4729
4083.37 96.4032
4086.27 97.5992
4089.18 100.764
4092.09 100.188
4095 82.9489
4097.91 84.687
4100.82 88.3488
4103.73 92.7644
4106.64 94.6888
4109.55 91.7817
4112.46 94.3836
4115.37 100.874
4118.27 97.5761
4121.18 101.289
4124.09 102.301
4127 98.1351
4129.91 89.8911
4132.82 94.3119
4135.73 99.6705
4138.64 104.213
4141.55 93.1564
4144.46 93.9447
4147.36 103.292
4150.27 100.911
4153.18 98.4268
4156.09 96.8588
4159 101.62
4161.91 103.369
4164.82 104.762
4167.73 99.7192
4170.64 97.137
4173.55 91.2577
4176.45 98.1302
4179.36 97.5612
4182.27 90.3451
4185.18 98.0112
4188.09 94.0655
4191 95.4729
4193.91 89.2766
4196.82 89.7487
4199.72 92.5634
4202.63 91.9357
4205.54 95.737
4208.45 100.057
4211.36 100.626
4214.27 100.287
4217.18 92.6943
4220.09 92.9946
4222.99 85.785
4225.9 86.2681
4228.81 94.92
4231.72 91.026
4234.63 91.0184
4237.54 96.391
4240.45 94.3981
4243.35 92.2491
4246.26 93.987
4249.17 90.9094
4252.08 91.2487
4254.99 94.5236
4257.9 93.0058
4260.81 93.7226
4263.71 96.2593
4266.62 88.614
4269.53 87.4571
4272.44 91.3536
4275.35 89.3853
4278.26 95.9668
4281.16 92.8536
4284.07 94.5004
4286.98 88.4712
4289.89 87.9644
4292.8 85.1834
4295.71 81.2377
4298.61 72.8318
4301.52 74.4421
4304.43 69.2964
4307.34 70.2603
4310.25 77.9381
4313.15 91.8613
4316.06 94.8187
4318.97 96.5223
4321.88 91.464
4324.79 91.8888
4327.69 101.739
4330.6 105.664
4333.51 99.5282
4336.42 95.9608
4339.33 95.4843
4342.23 100.428
4345.14 105.862
4348.05 103.448
4350.96 103.762
4353.87 107.804
4356.77 103.058
4359.68 103.363
4362.59 112.815
4365.5 109.745
4368.4 107.763
4371.31 109.063
4374.22 104.234
4377.13 102.509
4380.03 97.5953
4382.94 93.9958
4385.85 99.5138
4388.76 94.9667
4391.66 100.856
4394.57 103.511
4397.48 101.791
4400.39 100.231
4403.29 99.8154
4406.2 106.079
4409.11 107.932
4412.02 106.241
4414.92 110.773
4417.83 112.657
4420.74 111.385
4423.64 114.733
4426.55 114.048
4429.46 108.606
4432.36 113.935
4435.27 117.775
4438.18 114.763
4441.09 114.461
4443.99 115.448
4446.9 120.036
4449.81 119.246
4452.71 113.774
4455.62 109.513
4458.53 112.685
4461.43 115.527
4464.34 116.107
4467.25 117.802
4470.15 120.436
4473.06 120.282
4475.97 127.611
4478.87 121.729
4481.78 122.02
4484.69 123.653
4487.59 121.608
4490.5 122.691
4493.41 127.723
4496.31 126.822
4499.22 126.79
4502.12 134.394
4505.03 137.841
4507.94 137.048
4510.84 133.998
4513.75 129.672
4516.65 126.121
4519.56 132.425
4522.47 126.281
4525.37 116.506
4528.28 115.627
4531.18 120.134
4534.09 122.877
4537 124.258
4539.9 121.911
4542.81 125.186
4545.71 120.529
4548.62 125.84
4551.52 125.774
4554.43 127.401
4557.34 129.651
4560.24 132.363
4563.15 134.048
4566.05 132.805
4568.96 130.684
4571.86 130.889
4574.77 140.301
4577.67 132.528
4580.58 124.178
4583.48 123.543
4586.39 133.34
4589.29 130.643
4592.2 124.824
4595.1 132.078
4598.01 128.275
4600.91 132.844
4603.82 131.638
4606.72 136.849
4609.63 136.532
4612.53 137.709
4615.44 135.457
4618.34 132.356
4621.25 133.017
4624.15 138.191
4627.06 140.092
4629.96 133.703
4632.87 130.875
4635.77 133.752
4638.67 131.963
4641.58 128.837
4644.48 130.229
4647.39 126.164
4650.29 128.566
4653.2 129.664
4656.1 133.673
4659 130.742
4661.91 129.882
4664.81 124.794
4667.72 128.562
4670.62 126.946
4673.52 127.841
4676.43 130.656
4679.33 129.269
4682.23 132.488
4685.14 125.549
4688.04 125.877
4690.94 134.898
4693.85 132.566
4696.75 134.295
4699.66 124.969
4702.56 127.285
4705.46 126.882
4708.36 129.829
4711.27 134.843
4714.17 138.9
4717.07 136.583
4719.98 138.539
4722.88 141.761
4725.78 138.001
4728.69 129.973
4731.59 131.663
4734.49 129.4
4737.39 135.098
4740.3 137.264
4743.2 135.614
4746.1 144.499
4749 140.669
4751.91 133.486
4754.81 136.992
4757.71 135.952
4760.61 135.042
4763.52 133.547
4766.42 131.281
4769.32 136.636
4772.22 137.496
4775.13 141.574
4778.03 138.961
4780.93 134.061
4783.83 138.184
4786.73 136.872
4789.63 134.611
4792.54 135.804
4795.44 135.898
4798.34 135.519
4801.24 133.659
4804.14 133.89
4807.04 137.828
4809.95 134.601
4812.85 136.656
4815.75 136.636
4818.65 137.194
4821.55 138.934
4824.45 137.484
4827.35 131.558
4830.25 136.719
4833.15 137.647
4836.06 139.158
4838.96 137.246
4841.86 133.966
4844.76 136.402
4847.66 137.099
4850.56 136.323
4853.46 130.306
4856.36 124.429
4859.26 116.833
4862.16 125.686
4865.06 128.461
4867.96 122.433
4870.86 134.114
4873.76 133.935
4876.66 135.919
4879.56 137.804
4882.46 139.145
4885.36 138.296
4888.26 136.043
4891.16 138.345
4894.06 148.207
4896.96 148.778
4899.86 155.545
4902.76 147.919
4905.66 144.72
4908.56 143.538
4911.46 145.918
4914.36 144.653
4917.26 136.844
4920.15 131.599
4923.05 138.38
4925.95 142.036
4928.85 147.561
4931.75 147.623
4934.65 140.106
4937.55 136.186
4940.45 143.66
4943.35 146.833
4946.24 148.619
4949.14 144.287
4952.04 137.785
4954.94 135.282
4957.84 139.798
4960.74 138.24
4963.63 142.922
4966.53 141.17
4969.43 142.192
4972.33 139.878
4975.23 148.207
4978.12 140.493
4981.02 131.72
4983.92 132.041
4986.82 138.024
4989.71 140.281
4992.61 144.834
4995.51 139.725
4998.41 143.168
5001.3 140.053
5004.2 131.967
5007.1 137.899
5009.99 135.182
5012.89 133.294
5015.79 136.472
5018.69 137.566
5021.58 141.372
5024.48 136.583
5027.38 142.255
5030.27 148.435
5033.17 141.574
5036.07 140.972
5038.96 136.863
5041.86 139.551
5044.75 139.031
5047.65 140.825
5050.55 145.72
5053.44 146.917
5056.34 145.913
5059.23 152.104
5062.13 148.947
5065.03 142.744
5067.92 150.511
5070.82 146.146
5073.71 142.662
5076.61 139.198
5079.5 141.945
5082.4 135.709
5085.29 138.302
5088.19 143.271
5091.08 142.037
5093.98 140.814
5096.87 138.198
5099.77 142.194
5102.66 141.029
5105.56 145.477
5108.45 142.06
5111.35 142.701
5114.24 149.273
5117.14 140.812
5120.03 145.082
5122.92 142.026
5125.82 137.997
5128.71 141.212
5131.61 141.975
5134.5 145.455
5137.39 139.908
5140.29 139.649
5143.18 136.733
5146.07 147.981
5148.97 147.942
5151.86 148.475
5154.75 149.347
5157.65 154.176
5160.54 151.682
5163.43 140.095
5166.33 127.161
5169.22 124.677
5172.11 126.113
5175.01 138.932
5177.9 142.446
5180.79 130.74
5183.68 133.151
5186.58 140.922
5189.47 144.419
5192.36 149.278
5195.25 152.708
5198.15 153.271
5201.04 159.955
5203.93 156.162
5206.82 149.727
5209.71 160.032
5212.61 157.274
5215.5 154.519
5218.39 161.624
5221.28 162.847
5224.17 155.881
5227.06 154.427
5229.95 154.415
5232.85 159.003
5235.74 165.485
5238.63 163.059
5241.52 168.121
5244.41 165.935
5247.3 166.211
5250.19 165.335
5253.08 164.159
5255.97 169.702
5258.86 169.783
5261.75 158.374
5264.64 147.421
5267.53 140.598
5270.42 145.924
5273.31 151.862
5276.2 154.16
5279.09 161.12
5281.98 160.755
5284.87 164.487
5287.76 167.719
5290.65 170.413
5293.54 169.969
5296.43 165.173
5299.32 167.521
5302.21 171.34
5305.1 170.374
5307.99 175.971
5310.87 177.773
5313.76 172.574
5316.65 175.295
5319.54 164.039
5322.43 165.846
5325.32 159.653
5328.21 154.71
5331.09 166.043
5333.98 167.299
5336.87 164.491
5339.76 166.635
5342.65 165.571
5345.53 167.975
5348.42 170.704
5351.31 169.86
5354.2 174.693
5357.08 174.595
5359.97 172.086
5362.86 168.528
5365.75 164.012
5368.63 165.937
5371.52 165.859
5374.41 167.452
5377.29 169.478
5380.18 171.112
5383.07 167.934
5385.95 174.834
5388.84 167.364
5391.73 165.343
5394.61 162.885
5397.5 159.839
5400.38 160.88
5403.27 155.753
5406.16 155.428
5409.04 159.836
5411.93 123.908
5414.81 126.619
5417.7 126.79
5420.58 128.226
5423.47 127.13
5426.35 128.983
5429.24 122.21
5432.12 126.708
5435.01 129.048
5437.89 134.372
5440.78 133.402
5443.66 124.876
5446.55 129.114
5449.43 128.99
5452.32 130.403
5455.2 128.295
5458.08 134.323
5460.97 136.152
5463.85 135.523
5466.74 135.698
5469.62 137.365
5472.5 130.442
5475.39 129.424
5478.27 132.236
5481.15 132.17
5484.04 132.678
5486.92 134.444
5489.8 137.048
5492.69 134.466
5495.57 136.122
5498.45 129.603
5501.33 134.076
5504.22 137.044
5507.1 135.212
5509.98 129.892
5512.86 134.361
5515.75 135.451
5518.63 136.034
5521.51 138.971
5524.39 131.861
5527.27 134.543
5530.16 132.416
5533.04 135.687
5535.92 138.26
5538.8 136.494
5541.68 139.101
5544.56 136.15
5547.44 137.062
5550.32 137.496
5553.2 136.513
5556.09 138.851
5558.97 142.147
5561.85 135.896
5564.73 134.849
5567.61 136.725
5570.49 132.478
5573.37 136.511
5576.25 136.228
5579.13 132.422
5582.01 136.895
5584.89 125.328
5587.77 133.092
5590.65 135.553
5593.52 132.696
5596.4 136.934
5599.28 130.172
5602.16 141.676
5605.04 143.283
5607.92 138.771
5610.8 139.759
5613.68 134.572
5616.56 129.267
5619.43 134.392
5622.31 138.183
5625.19 140.064
5628.07 131.169
5630.95 137.192
5633.82 139.937
5636.7 138.894
5639.58 134.373
5642.46 136.837
5645.34 137.382
5648.21 137.943
5651.09 137.639
5653.97 137.694
5656.84 136.397
5659.72 135.859
5662.6 137.246
5665.47 136.769
5668.35 142.259
5671.23 139.207
5674.1 139.886
5676.98 146.121
5679.86 139.847
5682.73 140.297
5685.61 135.074
5688.48 139.049
5691.36 136.734
5694.23 141.15
5697.11 138.441
5699.99 139.12
5702.86 134.562
5705.74 136.818
5708.61 134.845
5711.49 133.709
5714.36 140.169
5717.24 137.672
5720.11 141.669
5722.98 144.425
5725.86 144.251
5728.73 145.44
5731.61 141.211
5734.48 142.356
5737.36 145.499
5740.23 141.356
5743.1 143.516
5745.98 140.862
5748.85 140.819
5751.72 142.2
5754.6 140.958
5757.47 139.787
5760.34 146.977
5763.21 142.835
5766.09 143.612
5768.96 147.581
5771.83 146.721
5774.71 141.871
5777.58 138.146
5780.45 137.344
5783.32 137.425
5786.19 136.917
5789.07 140.79
5791.94 140.189
5794.81 143.309
5797.68 144.213
5800.55 146.517
5803.42 144.205
5806.29 147.738
5809.16 148.575
5812.04 149.599
5814.91 145.504
5817.78 147.324
5820.65 150.201
5823.52 153.353
5826.39 148.821
5829.26 152.862
5832.13 150.184
5835 145.206
5837.87 153.388
5840.74 151.348
5843.61 147.24
5846.48 147.721
5849.35 148.531
5852.22 142.254
5855.08 147.297
5857.95 142.946
5860.82 140.03
5863.69 149.207
5866.56 145.84
5869.43 153.85
5872.3 153.049
5875.17 146.386
5878.03 146.645
5880.9 147.454
5883.77 146.167
5886.64 133.973
5889.5 119.522
5892.37 121.508
5895.24 125.122
5898.11 132.418
5900.97 140.566
5903.84 144.702
5906.71 142.701
5909.57 144.989
5912.44 144.178
5915.31 147.07
5918.17 146.06
5921.04 144.387
5923.91 145.258
5926.77 149.595
5929.64 146.968
5932.5 144.505
5935.37 147.914
5938.24 148.067
5941.1 147.806
5943.97 147.639
5946.83 148.461
5949.7 142.949
5952.56 143.879
5955.43 148.032
5958.29 149.799
5961.16 146.498
5964.02 149.194
5966.88 151.914
5969.75 149.852
5972.61 144.622
5975.48 149.653
5978.34 148.724
5981.2 144.062
5984.07 142.792
5986.93 144.179
5989.79 147.76
5992.66 151.449
5995.52 146.424
5998.38 149.054
6001.25 147.437
6004.11 152.83
6006.97 147.683
6009.83 143.724
6012.7 146.508
6015.56 144.16
6018.42 144.235
6021.28 142.97
6024.14 142.9
6027.01 149.458
6029.87 146.615
6032.73 147.606
6035.59 145.447
6038.45 148.896
6041.31 151.167
6044.17 153.296
6047.03 152.992
6049.89 151.514
6052.75 153.225
6055.61 149.402
6058.47 146.418
6061.33 150.207
6064.19 151.955
6067.05 148.71
6069.91 151.348
6072.77 150.984
6075.63 150.114
6078.49 151.26
6081.35 147.4
6084.21 146.955
6087.07 150.314
6089.93 145.064
6092.79 148.07
6095.64 149.519
6098.5 148.681
6101.36 148.591
6104.22 145.246
6107.08 146.215
6109.94 151.017
6112.79 149.37
6115.65 147.721
6118.51 144.378
6121.36 144.792
6124.22 143.787
6127.08 145.496
6129.94 149.292
6132.79 146.46
6135.65 144.471
6138.51 144.482
6141.36 147.833
6144.22 149.202
6147.07 147.595
6149.93 149.74
6152.79 142.798
6155.64 144.78
6158.5 137.061
6161.35 134.961
6164.21 142.167
6167.06 137.552
6169.92 142.013
6172.77 142.086
6175.63 144.625
6178.48 151.325
6181.34 152.947
6184.19 148.701
6187.04 149.231
6189.9 147.593
6192.75 146.748
6195.61 149.559
6198.46 152.309
6201.31 153.767
6204.17 153.851
6207.02 152.939
6209.87 152.383
6212.73 154.237
6215.58 157.052
6218.43 152.175
6221.28 157.007
6224.14 159.354
6226.99 153.13
6229.84 157.195
6232.69 162.469
6235.54 162.131
6238.39 161.392
6241.25 152.83
6244.1 160.98
6246.95 160.269
6249.8 159.974
6252.65 160.697
6255.5 161.097
6258.35 159.063
6261.2 158.16
6264.05 160.313
6266.9 168.99
6269.75 165.229
6272.6 162.556
6275.45 161.439
6278.3 154.536
6281.15 154.256
6284 159.229
6286.85 160.886
6289.7 164.589
6292.55 160.001
6295.4 159.228
6298.25 158.118
6301.09 156.986
6303.94 155.475
6306.79 159.9
6309.64 158.233
6312.49 153.425
6315.33 153.431
6318.18 159.387
6321.03 157.698
6323.88 158.17
6326.72 159.87
6329.57 162.279
6332.42 159.69
6335.27 157.729
6338.11 158.071
6340.96 156.884
6343.8 159.286
6346.65 160.3
6349.5 160.509
6352.34 159.434
6355.19 160.914
6358.03 156.768
6360.88 159.495
6363.72 165.418
6366.57 163.888
6369.41 161.7
6372.26 163.401
6375.1 165.237
6377.95 163.453
6380.79 165.239
6383.64 163.328
6386.48 163.091
6389.33 162.641
6392.17 158.91
6395.01 165.802
6397.86 157.316
6400.7 161.031
6403.54 162.451
6406.39 160.187
6409.23 160.018
6412.07 164.42
6414.91 163.158
6417.76 161.566
6420.6 158.629
6423.44 164.06
6426.28 165.335
6429.13 166.694
6431.97 160.418
6434.81 165.051
6437.65 159.437
6440.49 157.145
6443.33 163.704
6446.17 158.98
6449.01 161.685
6451.86 159.133
6454.7 160.428
6457.54 160.709
6460.38 159.838
6463.22 156.504
6466.06 163.21
6468.9 156.114
6471.74 160.325
6474.58 160.048
6477.41 158.461
6480.25 160.077
6483.09 159.738
6485.93 164.712
6488.77 153.759
6491.61 150.29
6494.45 148.997
6497.29 150.238
6500.12 159.099
6502.96 159.206
6505.8 157.786
6508.64 160.92
6511.47 158.218
6514.31 155.859
6517.15 160.869
6519.99 155.409
6522.82 158.605
6525.66 157.55
6528.5 158.38
6531.33 159.01
6534.17 154.721
6537 162.288
6539.84 158.814
6542.68 155.593
6545.51 123.055
6548.35 124.086
6551.18 120.731
6554.02 118.964
6556.85 112.803
6559.69 103.494
6562.52 100.339
6565.36 108.644
6568.19 115.376
6571.03 121.91
6573.86 123.621
6576.69 124.367
6579.53 124.161
6582.36 125.188
6585.19 124.284
6588.03 123.185
6590.86 125.986
6593.69 127.633
6596.53 127.521
6599.36 127.959
6602.19 128.118
6605.02 130.754
6607.86 127.59
6610.69 129.602
6613.52 129.101
6616.35 129.057
6619.18 127.597
6622.01 130.515
6624.84 131.078
6627.68 124.19
6630.51 127.274
6633.34 128.711
6636.17 129.191
6639 127.414
6641.83 129.858
6644.66 133.16
6647.49 130.761
6650.32 129.302
6653.15 130.264
6655.98 129.659
6658.81 134.849
6661.64 130.319
6664.46 131.769
6667.29 134.907
6670.12 130.292
6672.95 131.206
6675.78 129.653
6678.61 131.957
6681.44 133.654
6684.26 131.934
6687.09 131.733
6689.92 132.159
6692.75 132.792
6695.57 131.66
6698.4 132.58
6701.23 131.846
6704.05 129.325
6706.88 131.133
6709.71 132.82
6712.53 129.766
6715.36 133.305
6718.18 134.617
6721.01 137.762
6723.84 131.451
6726.66 134.578
6729.49 133.708
6732.31 129.276
6735.14 136.238
6737.96 132.442
6740.78 135.832
6743.61 131.493
6746.43 131.794
6749.26 133.653
6752.08 127.241
6754.9 138.522
6757.73 130.678
6760.55 131.561
6763.38 133.553
6766.2 130.818
6769.02 133.413
6771.84 134.773
6774.67 135.461
6777.49 136.251
6780.31 128.399
6783.13 130.436
6785.95 133.579
6788.78 132.203
6791.6 133.231
6794.42 131.202
6797.24 134.716
6800.06 133.949
6802.88 131.189
6805.7 133.575
6808.52 132.598
6811.34 131.713
6814.16 128.247
6816.98 129.845
6819.8 131.983
6822.62 133.092
6825.44 126.029
6828.26 128.66
6831.08 133.815
6833.9 126.564
6836.72 134.286
6839.54 126.983
6842.36 122.933
6845.18 126.655
6847.99 125.497
6850.81 131.585
6853.63 123.295
6856.45 130.761
6859.26 130.652
6862.08 123.521
6864.9 111.279
6867.72 99.3471
6870.53 97.4329
6873.35 96.9286
6876.17 112.841
6878.98 110.645
6881.8 114.925
6884.61 115.168
6887.43 116.652
6890.25 112.263
6893.06 118.266
6895.88 118.333
6898.69 124.163
6901.51 119.319
6904.32 119.812
6907.14 125.131
6909.95 119.845
6912.76 121.725
6915.58 124.428
6918.39 123.473
6921.21 123.229
6924.02 125.08
6926.83 126.697
6929.65 128.313
6932.46 125.305
6935.27 124.507
6938.08 123.095
6940.9 127.41
6943.71 121.966
6946.52 128.88
6949.33 127.972
6952.15 128.356
6954.96 125.388
6957.77 132.035
6960.58 131.639
6963.39 131.048
6966.2 135.239
6969.01 129.07
6971.82 129.85
6974.63 129.263
6977.44 129.01
6980.25 127.798
6983.06 126.9
6985.87 134.086
6988.68 128.553
6991.49 128.413
6994.3 124.909
6997.11 130.634
6999.92 126.912
7002.73 128.508
7005.54 129.674
7008.34 128.471
7011.15 128.095
7013.96 125.467
7016.77 127.716
7019.58 127.851
7022.38 126.987
7025.19 125.61
7028 127.446
7030.8 131.586
7033.61 127.506
7036.42 131.778
7039.22 131.823
7042.03 134.56
7044.84 134.727
7047.64 133.84
7050.45 128.544
7053.25 130.912
7056.06 134.522
7058.86 129.386
7061.67 131.546
7064.47 128.082
7067.28 130.983
7070.08 129.782
7072.89 133.623
7075.69 132.731
7078.49 133.625
7081.3 128.918
7084.1 132.445
7086.9 128.751
7089.71 133.138
7092.51 134.373
7095.31 130.072
7098.12 129.708
7100.92 130.349
7103.72 132.395
7106.52 130.85
7109.32 128.209
7112.13 131.68
7114.93 126.907
7117.73 129.945
7120.53 127.836
7123.33 130.519
7126.13 130.853
7128.93 127.318
7131.73 133.114
7134.53 132.66
7137.33 133.051
7140.13 129.826
7142.93 132.977
7145.73 127.83
7148.53 130.792
7151.33 126.736
7154.13 133.507
7156.93 129.64
7159.73 128.821
7162.53 125.515
7165.32 127.59
7168.12 129.725
