wavelength spec_sum spec_optimal
3538.02 134.285 110.235
3540.93 147.425 114.061
3543.84 130.193 103.558
3546.75 127.495 98.1379
3549.67 161.391 126.504
3552.58 145.921 115.637
3555.49 161.006 123.233
3558.4 210.108 139.073
3561.31 144.922 117.857
3564.23 144.804 121.266
3567.14 166.571 134.257
3570.05 176.052 138.697
3572.96 173.197 146.47
3575.88 149.551 131.694
3578.79 159.047 136.157
3581.7 155.279 125.753
3584.61 162.437 139.164
3587.52 169.82 146.582
3590.44 162.986 145.074
3593.35 162.781 141.507
3596.26 163.144 138.363
3599.17 163.537 137.94
3602.08 160.512 135.908
3605 143.641 120.14
3607.91 150.247 131.349
3610.82 163.844 148.028
3613.73 167.115 139.187
3616.64 168.693 151.504
3619.56 171.053 156.499
3622.47 173.618 148.118
3625.38 171.076 149.552
3628.29 174.328 150.958
3631.2 166.426 153.559
3634.12 173.477 153.597
3637.03 171.641 154.05
3639.94 172.207 156.078
3642.85 163.887 145.84
3645.76 169.224 145.841
3648.68 176.998 155.245
3651.59 169.251 150.667
3654.5 173.406 146.592
3657.41 174.062 153.331
3660.32 173.859 152.061
3663.24 174.172 158.355
3666.15 166.525 151.891
3669.06 159.656 141.529
3671.97 156.563 138.736
3674.88 176.783 158.494
3677.8 170.06 151.672
3680.71 159.583 140.795
3683.62 157.3 132.422
3686.53 163.38 150.036
3689.44 158.473 143.126
3692.35 171.232 151.753
3695.27 179.503 166.523
3698.18 169.204 150.064
3701.09 157.176 141.935
3704 151.294 135.518
3706.91 154.357 135.565
3709.83 153.297 143.951
3712.74 162.553 152.672
3715.65 179.945 160.197
3718.56 176.297 158.45
3721.47 174.322 160.28
3724.39 173.982 154.807
3727.3 156.291 140.838
3730.21 167.975 152.329
3733.12 166.757 144.58
3736.03 174.124 160.07
3738.94 178.061 162.463
3741.86 172.417 156.59
3744.77 228.54 238.532
3747.68 185.511 174.599
3750.59 146.244 131.7
3753.5 284.342 286.607
3756.41 174.134 158.956
3759.33 157.203 143.471
3762.24 171.403 154.925
3765.15 164.822 147.503
3768.06 177.692 158.493
3770.97 169.763 156.509
3773.88 165.092 153.143
3776.8 175.691 160.253
3779.71 165.18 155.728
3782.62 164.897 149.257
3785.53 162.721 156.044
3788.44 162.878 151.15
3791.35 152.364 139.182
3794.27 164.21 151.312
3797.18 168.154 161.846
3800.09 161.507 154.53
3803 177.253 171.859
3805.91 164.812 153.893
3808.82 178.604 166.67
3811.74 170.832 160.378
3814.65 171.647 158.565
3817.56 171.485 157.404
3820.47 174.54 164.58
3823.38 168.157 152.843
3826.29 172.84 161.076
3829.2 163.63 152.747
3832.12 159.501 151.054
3835.03 156.07 150.533
3837.94 161 152.006
3840.85 161.224 148.313
3843.76 173.547 159.488
3846.67 168.4 156.323
3849.58 162.605 149.737
3852.5 171.639 159.599
3855.41 161.991 153.273
3858.32 170.148 158.396
3861.23 165.848 154.478
3864.14 153.849 141.767
3867.05 162.341 151.3
3869.96 151.306 141.873
3872.87 145.788 134.56
3875.79 145.371 138.102
3878.7 148.683 137.413
3881.61 139.502 127.739
3884.52 147.257 139.17
3887.43 148.824 142.629
3890.34 149.635 144.452
3893.25 153.557 140.986
3896.16 146.295 135.435
3899.07 153.423 148.483
3901.99 158.433 149.97
3904.9 164.799 155.268
3907.81 160.817 155.586
3910.72 155.57 148.409
3913.63 166.356 155.985
3916.54 154.739 149.948
3919.45 169.352 159.106
3922.36 170.104 159.642
3925.27 164.344 157.844
3928.18 166.397 158.588
3931.1 155.216 151.092
3934.01 172.978 164.336
3936.92 170.661 163.627
3939.83 167.727 161.798
3942.74 166.777 158.155
3945.65 163.238 158.997
3948.56 158.46 151.007
3951.47 164.488 160.244
3954.38 154.753 161.33
3957.29 154.599 164.575
3960.2 152.529 158.597
3963.11 148.724 153.18
3966.02 152.896 154.566
3968.94 140.609 147.346
3971.85 147.09 152.853
3974.76 145.061 147.206
3977.67 144.767 145.896
3980.58 155.193 163.31
3983.49 144.516 146.133
3986.4 155.829 159.037
3989.31 154.436 161.309
3992.22 155.5 161.154
3995.13 151.831 156.43
3998.04 156.122 162.404
4000.95 157.617 165.482
4003.86 159.756 166.89
4006.77 156.498 162.535
4009.68 156.167 164.15
4012.59 164.311 172.074
4015.5 158.942 165.519
4018.41 163.662 169.001
4021.32 163.404 172.049
4024.23 168.282 177.158
4027.14 164.006 168.934
4030.05 161.333 168.092
4032.96 156.678 164.26
4035.88 156.345 165.431
4038.79 159.971 167.159
4041.7 150.671 157.922
4044.61 159.463 171.905
4047.52 157.373 165.82
4050.43 153.75 159.009
4053.34 158.861 164.906
4056.25 153.382 165.53
4059.16 161.043 169.483
4062.07 146.261 150.346
4064.98 154.029 161.591
4067.89 157.803 164.228
4070.8 155.68 165.485
4073.71 147.975 158.317
4076.62 136.197 144.889
4079.53 145.688 153.143
4082.43 140.383 148.795
4085.34 149.65 155.601
4088.25 147.469 156.395
4091.16 140.121 146.747
4094.07 143.555 154.131
4096.98 138.972 148.076
4099.89 136.144 142.827
4102.8 128.644 138.3
4105.71 139.301 146.935
4108.62 136.533 144.995
4111.53 132.07 141.564
4114.44 133.863 143.484
4117.35 140.884 149.416
4120.26 136.988 148.205
4123.17 148.354 155.601
4126.08 139.111 146.33
4128.99 146.392 157.77
4131.9 146.841 154.356
4134.81 140.019 147.774
4137.72 149.539 156.709
4140.63 148.697 158.006
4143.54 148.556 159.998
4146.44 148.275 156.111
4149.35 149.728 159.251
4152.26 150.073 160.739
4155.17 154.352 161.942
4158.08 146.029 153.751
4160.99 149.44 162.088
4163.9 149.465 161.58
4166.81 152.7 160.212
4169.72 149.347 157.154
4172.63 149.976 160.338
4175.54 151.835 161.738
4178.44 146.297 154.965
4181.35 144.256 155.235
4184.26 145.49 154.879
4187.17 142.858 152.113
4190.08 146.322 159.748
4192.99 149.256 160.823
4195.9 143.827 153.369
4198.81 147.456 157.217
4201.71 148.726 158.217
4204.62 144.923 155.549
4207.53 143.658 154.843
4210.44 141.436 149.037
4213.35 142.415 149.643
4216.26 146.432 157.027
4219.17 139.587 151.027
4222.07 144.037 154.241
4224.98 137.28 144.965
4227.89 139.556 151.08
4230.8 142.007 149.254
4233.71 139.344 150.311
4236.62 140.658 151.41
4239.52 131.623 142.445
4242.43 133.587 143.254
4245.34 136.717 142.925
4248.25 136.037 142.762
4251.16 139.559 150.481
4254.07 137.248 149.636
4256.97 138.071 147.332
4259.88 140.11 150.225
4262.79 137.297 148.053
4265.7 136.015 146.969
4268.61 136.878 150.341
4271.51 134.6 142.547
4274.42 142.563 153.259
4277.33 136.63 149.972
4280.24 139.79 150.824
4283.14 136.444 148.904
4286.05 139.368 152.168
4288.96 135.56 148.573
4291.87 135.856 149.257
4294.78 135.054 148.946
4297.68 137.495 148.783
4300.59 133.009 142.054
4303.5 137.93 151.497
4306.41 134.5 144.448
4309.31 131.549 144.47
4312.22 132.645 143.777
4315.13 130.95 142.114
4318.04 135.541 148.452
4320.94 128.041 140.797
4323.85 127.668 138.745
4326.76 124.298 137.274
4329.66 127.091 139.556
4332.57 119.751 130.929
4335.48 122.714 135.378
4338.39 112.045 123.962
4341.29 116.03 125.854
4344.2 107.332 117.224
4347.11 116.839 127.648
4350.01 116.702 127.266
4352.92 119.331 129.991
4355.83 116.929 128.13
4358.73 120.355 132.012
4361.64 117.445 128.968
4364.55 119.852 130.637
4367.45 123.667 136.418
4370.36 123.071 136.055
4373.27 122.423 134.636
4376.17 121.389 136.009
4379.08 127.862 142.071
4381.99 127.728 139.262
4384.89 126.931 136.239
4387.8 123.887 136.182
4390.71 124.979 137.013
4393.61 119.978 132.408
4396.52 123.769 135.808
4399.43 120.98 130.901
4402.33 123.494 136.045
4405.24 128.988 140.27
4408.14 125.465 137.606
4411.05 133.996 147.705
4413.96 122.719 135.222
4416.86 121.974 135.108
4419.77 119.635 132.204
4422.68 122.726 137.286
4425.58 123.429 134.745
4428.49 123.385 139.087
4431.39 125.166 138.193
4434.3 120.269 134.362
4437.2 118.873 130.939
4440.11 125.82 141.39
4443.02 125.135 137.815
4445.92 125.115 137.684
4448.83 128.116 140.774
4451.73 115.254 126.735
4454.64 124.488 138.106
4457.54 121.752 135.433
4460.45 121.751 136.757
4463.35 120.344 135.596
4466.26 124.419 139.207
4469.17 116.56 130.921
4472.07 126.07 140.472
4474.98 122.858 137.973
4477.88 121.603 136.508
4480.79 124.063 137.225
4483.69 125.733 141.846
4486.6 119.487 133.329
4489.5 115.197 128.94
4492.41 122.933 137.459
4495.31 126.294 141.319
4498.22 112.726 124.203
4501.12 118.758 134.31
4504.03 120.503 135.094
4506.93 118.084 132.696
4509.83 117.568 132.127
4512.74 119.818 133.335
4515.64 112.576 126.835
4518.55 117.476 131.454
4521.45 123.15 136.986
4524.36 115.713 128.364
4527.26 116.579 131.712
4530.17 116.053 131.148
4533.07 116.248 130.182
4535.98 116.714 130.775
4538.88 114.074 128.793
4541.78 114.35 132.13
4544.69 116.008 131.263
4547.59 114.72 128.403
4550.5 121.555 135.744
4553.4 115.469 130.804
4556.3 108.418 122.35
4559.21 111.871 124.422
4562.11 111.033 126.424
4565.02 117.652 130.062
4567.92 113.371 126.238
4570.82 111.362 124.857
4573.73 117.283 130.258
4576.63 111.988 126.704
4579.53 110.91 125.318
4582.44 104.427 119.29
4585.34 116.698 130.51
4588.24 108.059 121.188
4591.15 113.093 125.359
4594.05 112.086 126.968
4596.95 110.819 125.082
4599.86 110.833 125.069
4602.76 109.399 122.301
4605.66 113.041 127.116
4608.57 108.415 122.736
4611.47 114.173 128.729
4614.37 111.585 124.295
4617.28 109.777 123.391
4620.18 111.289 127.098
4623.08 110.772 125.557
4625.98 103.994 117.187
4628.89 108.685 122.761
4631.79 107.513 122.777
4634.69 101.956 113.037
4637.59 113.322 127.956
4640.5 107.064 121.97
4643.4 105.937 120.843
4646.3 104.269 119.718
4649.2 112.573 127.394
4652.11 108.238 124.14
4655.01 104.294 119.5
4657.91 106.359 121.719
4660.81 110.17 126.501
4663.72 105.781 121.432
4666.62 106.761 121.047
4669.52 106.888 121.322
4672.42 109.96 124.012
4675.32 106.142 120.999
4678.23 104.287 121.578
4681.13 108.178 123.288
4684.03 101.609 115.952
4686.93 102.883 118.458
4689.83 105.06 120.637
4692.73 106.385 120.998
4695.64 101.274 116.251
4698.54 106.119 119.909
4701.44 105.38 121.872
4704.34 105.753 123.029
4707.24 103.535 119.633
4710.14 106.372 123.139
4713.04 103.175 117.6
4715.94 105.551 121.899
4718.85 105.917 119.941
4721.75 106.637 123.438
4724.65 103.246 119.912
4727.55 104.023 120.314
4730.45 101.396 115.64
4733.35 106.758 122.084
4736.25 106.231 120.15
4739.15 100.676 116.824
4742.05 99.5106 116.748
4744.95 98.0487 114.22
4747.85 98.5921 114.934
4750.75 99.6923 114.87
4753.65 97.5009 111.907
4756.55 103.4 118.56
4759.46 99.6167 115.701
4762.36 100.665 114.205
4765.26 101.264 118.5
4768.16 96.7518 111.952
4771.06 102.84 117.699
4773.96 96.7031 111.605
4776.86 94.6016 109.536
4779.76 96.7948 112.37
4782.66 93.8047 108.7
4785.56 98.5887 114.645
4788.46 93.7141 108.636
4791.35 93.2889 106.732
4794.25 93.922 108.843
4797.15 93.0555 107.637
4800.05 92.5685 107.177
4802.95 89.223 102.425
4805.85 89.4995 103.243
4808.75 90.4938 105.296
4811.65 92.3917 106.918
4814.55 90.2454 103.617
4817.45 92.8417 108.039
4820.35 90.1304 104.908
4823.25 90.6576 105.469
4826.15 95.5799 110.741
4829.05 95.6732 110.103
4831.94 89.5643 102.849
4834.84 89.366 103.188
4837.74 89.3406 103.688
4840.64 90.2588 107.036
4843.54 89.6823 103.978
4846.44 89.3951 103.613
4849.34 89.1056 103.972
4852.23 86.3358 99.4705
4855.13 83.5826 97.629
4858.03 83.6528 95.3232
4860.93 78.5118 91.2103
4863.83 78.7097 90.5049
4866.73 85.1366 97.198
4869.62 85.5169 99.4743
4872.52 86.3431 100.378
4875.42 88.6601 102.582
4878.32 85.3834 101.602
4881.21 91.6092 108.189
4884.11 92.4119 107.261
4887.01 87.1216 103.28
4889.91 94.1433 108.442
4892.81 88.8246 103.27
4895.7 93.8735 109.058
4898.6 96.5101 109.52
4901.5 94.3684 110.738
4904.39 91.7076 106.951
4907.29 94.6056 111.415
4910.19 91.9189 106.763
4913.09 93.3304 109.892
4915.98 94.9375 109.766
4918.88 91.471 108.252
4921.78 95.7926 111.035
4924.67 87.4184 102.626
4927.57 91.1964 107.411
4930.47 91.7725 106.442
4933.36 92.3735 105.966
4936.26 90.5192 105.725
4939.16 91.1572 105.601
4942.05 90.5832 103.665
4944.95 90.0742 103.567
4947.85 93.0406 109.925
4950.74 91.3492 107.114
4953.64 87.3802 102.387
4956.53 85.9897 99.8466
4959.43 87.3319 101.696
4962.33 87.8737 104.801
4965.22 86.2233 98.6269
4968.12 81.2259 94.0134
4971.01 84.4208 99.5643
4973.91 88.2726 102.587
4976.81 88.7828 103.793
4979.7 85.5357 101.957
4982.6 85.9492 100.364
4985.49 87.6874 104.312
4988.39 86.4102 99.9323
4991.28 85.1374 102.16
4994.18 86.1769 100.75
4997.07 90.3312 106.222
4999.97 87.3866 101.106
5002.86 87.9859 102.781
5005.76 84.5053 99.0451
5008.65 85.1683 99.6841
5011.55 89.9029 104.001
5014.44 88.4426 103.919
5017.34 88.3042 101.362
5020.23 91.0691 104.182
5023.13 87.251 102.787
5026.02 86.8181 100.994
5028.92 83.3158 97.5231
5031.81 86.4538 99.8084
5034.7 88.8021 103.906
5037.6 84.9415 97.7329
5040.49 87.0905 101.507
5043.39 87.1108 100.298
5046.28 85.7705 100.739
5049.17 87.1204 102.015
5052.07 88.6217 103.748
5054.96 81.1728 93.8984
5057.86 90.6118 105.191
5060.75 84.775 98.8548
5063.64 82.3042 97.4945
5066.54 87.3053 100.895
5069.43 85.2299 99.3266
5072.32 87.7104 102.845
5075.22 83.2364 97.8307
5078.11 81.9195 96.2547
5081 87.7433 102.326
5083.9 80.9471 93.3996
5086.79 83.9376 98.2231
5089.68 83.6907 99.2265
5092.57 80.629 95.9701
5095.47 82.2072 96.7129
5098.36 82.5568 96.8696
5101.25 79.0217 93.3898
5104.14 78.9688 92.6439
5107.04 78.4748 93.2806
5109.93 81.7328 97.3117
5112.82 77.0106 90.7242
5115.71 78.5101 94.9995
5118.61 82.7148 97.7484
5121.5 76.8526 90.6311
5124.39 78.2831 92.1063
5127.28 81.2126 95.736
5130.17 80.0823 94.1041
5133.07 76.5149 90.2237
5135.96 80.0787 92.7906
5138.85 78.6538 93.5764
5141.74 77.396 92.253
5144.63 80.874 94.934
5147.52 75.8391 88.0486
5150.41 75.1504 89.1617
5153.31 81.3976 96.6211
5156.2 79.3049 93.4577
5159.09 79.5937 94.8975
5161.98 78.445 92.9057
5164.87 82.8375 99.3864
5167.76 78.1104 92.5588
5170.65 78.435 91.5021
5173.54 80.2732 95.2285
5176.43 80.5106 96.0873
5179.32 81.0634 95.0241
5182.21 81.7521 96.1079
5185.1 81.1264 95.6176
5187.99 80.5333 95.7929
5190.88 80.3286 94.9252
5193.77 78.0371 92.6839
5196.66 80.4917 96.2702
5199.55 82.1341 97.1881
5202.44 81.673 96.3881
5205.33 82.8843 98.5522
5208.22 83.1336 97.9165
5211.11 80.4386 94.773
5214 84.1029 100.179
5216.89 80.4695 95.3822
5219.78 85.4338 100.787
5222.67 81.9192 97.3745
5225.56 84.7018 102.043
5228.45 83.255 98.6074
5231.34 82.6365 99.9868
5234.23 81.1021 99.0639
5237.12 81.5118 96.8383
5240.01 85.7249 100.337
5242.9 86.4485 102.701
5245.78 83.7157 99.6891
5248.67 82.7896 98.8342
5251.56 80.7145 95.4501
5254.45 81.9608 97.9021
5257.34 81.3855 98.7928
5260.23 83.2024 98.5315
5263.11 84.2342 100.269
5266 84.5737 100.551
5268.89 82.0878 99.2261
5271.78 83.9326 98.7499
5274.67 82.1463 97.4286
5277.55 83.4763 99.0745
5280.44 83.4979 100.838
5283.33 79.9355 96.5086
5286.22 79.6226 95.4348
5289.11 77.7284 93.3764
5291.99 84.7803 101.224
5294.88 79.8852 94.5767
5297.77 79.2881 94.4753
5300.65 83.8588 98.9997
5303.54 72.3369 94.6414
5306.43 74.0071 95.7812
5309.32 70.4248 91.1998
5312.2 73.4614 96.662
5315.09 73.1549 95.8626
5317.98 70.3052 91.6427
5320.86 70.7275 92.7064
5323.75 69.488 89.9546
5326.63 70.1149 90.7949
5329.52 70.8542 93.12
5332.41 71.043 93.3766
5335.29 68.2241 88.8669
5338.18 68.6286 88.386
5341.07 64.5798 88.0786
5343.95 71.9789 91.977
5346.84 69.4708 92.7087
5349.72 68.2638 88.7908
5352.61 73.0879 95.4759
5355.49 71.6646 91.8853
5358.38 69.5988 90.207
5361.27 69.5831 91.3167
5364.15 72.2584 93.6858
5367.04 67.6599 88.8314
5369.92 67.4168 91.0017
5372.81 68.9119 89.042
5375.69 71.6679 93.1261
5378.58 67.923 87.6132
5381.46 71.2181 92.7731
5384.34 71.7229 92.6501
5387.23 69.5042 91.0028
5390.11 66.7045 90.3431
5393 70.0639 89.8851
5395.88 66.3661 86.4846
5398.77 68.9512 89.4572
5401.65 65.7914 85.409
5404.54 68.6722 89.412
5407.42 66.4544 86.1281
5410.3 68.9345 87.6252
5413.19 70.517 91.5649
5416.07 70.208 90.0723
5418.95 71.2049 91.7461
5421.84 66.578 85.0272
5424.72 61.493 83.9214
5427.6 68.3729 89.0129
5430.49 68.2828 87.377
5433.37 66.7027 85.3441
5436.25 67.3168 86.9136
5439.14 67.937 86.4504
5442.02 68.6006 87.6389
5444.9 63.3828 85.6528
5447.79 68.2508 87.2644
5450.67 67.8797 86.9758
5453.55 66.1717 85.8649
5456.43 66.359 85.6779
5459.31 64.4748 83.5169
5462.2 66.2904 86.0481
5465.08 66.7638 85.6276
5467.96 64.5858 83.1041
5470.84 64.7085 82.7403
5473.73 65.463 84.1805
5476.61 63.7958 83.0547
5479.49 65.6772 84.6898
5482.37 67.1519 86.257
5485.25 64.7992 82.5267
5488.13 66.1083 85.6384
5491.01 62.1175 84.6895
5493.9 62.8151 86.095
5496.78 64.5225 82.9914
5499.66 64.3675 82.3567
5502.54 65.3086 83.9901
5505.42 62.235 80.5255
5508.3 65.1638 85.4475
5511.18 63.9372 80.8157
5514.06 64.4647 84.3437
5516.94 61.1614 79.1089
5519.82 62.02 84.4949
5522.7 62.2266 79.5831
5525.58 62.1821 78.774
5528.46 59.7167 82.6635
5531.34 65.0361 83.3054
5534.22 57.4764 77.469
5537.1 58.9067 79.6577
5539.98 65.5993 85.1062
5542.86 66.0724 84.175
5545.74 59.1652 76.6916
5548.62 60.0882 78.4728
5551.5 56.2876 76.9232
5554.38 58.3592 78.2808
5557.26 63.3267 80.2262
5560.14 63.3866 80.429
5563.02 63.5659 79.0269
5565.9 62.5419 79.7927
5568.77 68.7762 87.787
5571.65 57.9429 71.588
5574.53 65.221 81.2313
5577.41 60.0292 75.0386
5580.29 60.804 84.7773
5583.17 64.6192 80.2694
5586.04 49.1047 84.0166
5588.92 62.3694 80.1571
5591.8 58.2889 74.8492
5594.68 64.8688 80.0786
5597.56 59.9581 76.2869
5600.43 56.7914 78.4535
5603.31 54.3709 74.5787
5606.19 60.9876 78.2356
5609.07 57.797 74.799
5611.94 56.4 77.4942
5614.82 61.0222 77.124
5617.7 56.8367 77.6455
5620.58 58.6925 73.8402
5623.45 60.5799 75.108
5626.33 59.1167 77.1312
5629.21 59.3086 75.1821
5632.08 60.1726 75.0268
5634.96 62.2429 78.1665
5637.83 56.2886 71.2609
5640.71 53.5519 72.8948
5643.59 59.2827 74.322
5646.46 58.6157 74.5082
5649.34 59.3928 74.6914
5652.22 57.4807 72.2884
5655.09 57.5634 73.099
5657.97 56.6801 72.2905
5660.84 58.1414 72.8185
5663.72 58.425 73.2693
5666.59 61.8973 78.5029
5669.47 57.0817 72.6814
5672.34 57.6098 72.1818
5675.22 58.9269 74.1738
5678.09 56.6349 71.9345
5680.97 59.3972 73.7126
5683.84 55.8634 71.5565
5686.72 57.0746 72.8754
5689.59 56.9169 71.2933
5692.47 53.5122 72.0911
5695.34 51.6183 71.7046
5698.22 57.5137 73.1425
5701.09 55.704 70.6602
5703.96 52.4533 65.4112
5706.84 57.4842 71.3441
5709.71 56.6323 70.9892
5712.58 51.4426 69.9922
5715.46 58.6995 72.2458
5718.33 56.4877 72.1602
5721.21 51.1863 67.5649
5724.08 56.4042 70.872
5726.95 50.5245 68.578
5729.82 57.2317 71.771
5732.7 56.0576 71.0086
5735.57 54.733 67.8162
5738.44 53.5464 65.4784
5741.32 56.6554 69.4294
5744.19 53.6094 68.7706
5747.06 55.2799 69.4764
5749.93 52.2694 69.5215
5752.81 50.7457 67.797
5755.68 52.8917 64.587
5758.55 58.9583 72.6324
5761.42 51.7856 65.453
5764.29 54.8535 69.1693
5767.17 44.9413 62.4831
5770.04 50.9687 70.0613
5772.91 54.4255 66.576
5775.78 56.0864 69.5997
5778.65 49.6789 66.0323
5781.52 53.3093 65.3946
5784.39 49.7149 67.0456
5787.26 51.7622 62.7204
5790.13 54.6375 67.2273
5793.01 52.6447 66.6992
5795.88 47.9164 65.1571
5798.75 51.3161 64.1863
5801.62 52.5534 65.0882
5804.49 51.3941 62.8631
5807.36 48.98 61.6152
5810.23 54.0737 66.4907
5813.1 52.4312 64.5155
5815.97 52.8375 64.8492
5818.84 52.7773 66.7398
5821.71 53.133 65.363
5824.58 56.0828 69.7228
5827.45 53.6045 66.1495
5830.31 51.6986 63.6829
5833.18 51.3236 64.9388
5836.05 50.9441 64.6393
5838.92 50.5611 62.3783
5841.79 51.6723 65.8279
5844.66 48.3952 65.6469
5847.53 52.8703 64.5516
5850.4 46.1867 62.8227
5853.27 48.0132 65.3
5856.13 52.7071 64.4106
5859 50.0677 61.4146
5861.87 52.8361 63.2098
5864.74 47.0271 66.2514
5867.61 46.544 65.1713
5870.47 53.2742 66.9998
5873.34 46.2459 64.6817
5876.21 53.1689 65.2144
5879.08 47.0465 59.1378
5881.94 51.432 64.4492
5884.81 43.1613 62.2231
5887.68 49.4356 59.5847
5890.54 46.85 56.9808
5893.41 32.4645 58.3674
5896.28 48.2397 57.8703
5899.14 45.4538 57.3923
5902.01 48.2317 60.0465
5904.88 41.9124 61.782
5907.74 48.8428 59.9281
5910.61 47.0065 58.0593
5913.48 49.1101 61.1471
5916.34 48.4174 58.2292
5919.21 51.2141 61.0029
5922.07 50.2414 60.283
5924.94 44.1054 59.6886
5927.8 52.0567 62.0808
5930.67 44.112 61.721
5933.53 49.3738 59.4183
5936.4 44.1507 60.2554
5939.26 46.8872 58.1516
5942.13 51.4158 62.6648
5944.99 45.9735 57.6788
5947.86 48.8315 60.2193
5950.72 49.2143 58.7155
5953.59 42.7689 60.3379
5956.45 49.2946 58.0199
5959.32 44.7482 55.0184
5962.18 47.1024 56.4008
5965.04 44.6018 59.4786
5967.91 45.3188 54.9551
5970.77 46.907 55.4416
5973.64 49.3986 59.6169
5976.5 49.9812 60.6588
5979.36 49.2009 59.5043
