wavelength spectrum_sum 3smoothed_sum spectrum_optimal 3smoothed_optimal spectrum_snr
3508.41 25.8615 14.2533 36.9578 20.4449 nan
3511.32 16.8985 22.9258 24.3769 34.488 nan
3514.23 26.0173 21.7452 42.1293 34.2411 nan
3517.15 22.3198 26.313 36.2172 35.9412 nan
3520.06 30.6019 28.4651 29.4769 33.328 nan
3522.97 32.4737 28.0453 34.2897 27.3826 nan
3525.88 21.0604 23.5436 18.3811 26.3457 nan
3528.8 17.0966 24.2591 26.3662 24.5007 17.5749
3531.71 34.6204 26.2689 28.7548 25.6645 23.8252
3534.62 27.0898 32.9785 21.8726 29.3265 9.98713
3537.53 37.2253 32.969 37.3522 22.6492 6.91109
3540.45 34.5917 36.2557 8.72278 28.1901 6.01148
3543.36 36.9502 30.7805 38.4954 27.7764 5.92043
3546.27 20.7998 24.6244 36.1111 33.5788 3.87533
3549.18 16.1233 22.1309 26.1298 33.4951 2.7609
3552.1 29.4697 31.5259 38.2444 40.9189 4.03427
3555.01 48.9848 33.3278 58.3825 46.6722 6.29246
3557.92 21.5289 36.0336 43.3896 46.81 3.61612
3560.83 37.5872 31.9721 38.6579 42.3196 7.03077
3563.75 36.8001 36.9749 44.9115 40.5005 6.55812
3566.66 36.5375 40.6142 37.9321 39.8659 12.2932
3569.57 48.5051 44.3098 36.754 44.9659 11.6109
3572.48 47.8867 43.8751 60.2116 40.4074 8.53943
3575.4 35.2337 37.6238 24.2566 40.5089 nan
3578.31 29.751 34.4171 37.0584 34.609 7.46723
3581.22 38.2665 34.0472 42.5119 38.7384 9.83216
3584.13 34.124 37.7912 36.645 42.5726 24.9581
3587.05 40.9831 40.4123 48.5609 43.8674 10.1719
3589.96 46.1299 44.1116 46.3962 48.8563 15.272
3592.87 45.2218 40.7764 51.612 48.5476 15.4203
3595.79 30.9774 36.3653 47.6348 49.0957 8.09224
3598.7 32.8967 40.8318 48.0402 53.8895 8.18872
3601.61 58.6212 52.6607 65.9935 59.3882 8.94391
3604.52 66.4643 53.0212 64.1308 60.1155 11.9407
3607.44 33.978 52.5002 50.2222 57.9291 8.32216
3610.35 57.0583 41.3175 59.4344 49.635 9.61292
3613.26 32.9162 47.8206 39.2485 50.7303 7.00122
3616.17 53.4873 48.2909 53.5081 53.114 8.14006
3619.09 58.4692 56.1687 66.5854 56.1916 7.91791
3622 56.5496 52.8284 48.4814 59.4267 9.20135
3624.91 43.4662 46.6248 63.2134 49.5395 6.24323
3627.82 39.8585 38.4422 36.9236 45.4976 5.1583
3630.74 32.0018 41.7323 36.3558 44.9655 4.69525
3633.65 53.3366 43.0682 61.6171 48.0221 6.57263
3636.56 43.866 45.6075 46.0935 52.9997 6.13641
3639.47 39.62 48.0521 51.2886 53.6184 5.25842
3642.39 60.6703 46.3154 63.4731 45.4118 7.0086
3645.3 38.6558 52.9061 21.4738 46.5353 5.91769
3648.21 59.3923 51.3802 54.6589 42.1328 7.4901
3651.13 56.0925 54.0567 50.2657 49.0198 7.29645
3654.04 46.6854 53.3109 42.1347 46.1507 6.06449
3656.95 57.1547 49.1372 46.0516 40.5728 7.518
3659.86 43.5714 56.4791 33.5322 53.3053 5.5888
3662.78 68.7111 58.996 80.3321 61.2219 7.95992
3665.69 64.7054 65.7974 69.8014 70.9678 7.59397
3668.6 63.9757 61.0941 62.7699 65.5605 7.11354
3671.51 54.6012 47.6476 64.1104 55.2861 7.68661
3674.43 24.366 44.3656 38.9781 49.4998 3.65187
3677.34 54.1295 40.4318 45.4108 42.9546 7.88837
3680.25 42.8 53.3435 44.475 47.5524 6.80579
3683.16 63.1011 61.1963 52.7716 54.953 8.53513
3686.08 77.6877 73.9075 67.6124 64.0778 9.29782
3688.99 80.9338 70.1999 71.8494 64.3575 9.84301
3691.9 51.9782 62.8391 53.6106 58.8955 5.9923
3694.81 55.6053 63.5452 51.2266 59.9058 6.18333
3697.73 83.0519 62.5758 74.8801 54.0665 8.72556
3700.64 49.0703 71.2929 36.0927 65.7557 5.48683
3703.55 81.7565 70.5678 86.2944 66.7586 7.69163
3706.46 80.8766 79.7785 77.8887 75.7751 7.77766
3709.38 76.7026 70.2331 63.142 61.7164 8.49362
3712.29 53.12 76.1836 44.1185 63.0834 5.85071
3715.2 98.7283 68.2242 81.9895 55.2258 9.70375
3718.11 52.8243 78.9631 39.5694 65.0883 5.77463
3721.03 85.3368 75.4493 73.706 59.3797 9.08491
3723.94 88.1867 82.4839 64.8638 68.9988 8.50737
3726.85 73.9282 80.2762 68.4267 63.5136 7.32164
3729.76 78.7138 68.3046 57.2504 66.8466 7.28365
3732.68 52.2717 61.6389 74.8627 61.7189 4.86163
3735.59 53.9311 62.9801 53.0435 65.1513 5.26851
3738.5 82.7376 64.3515 67.5477 55.6857 7.54977
3741.41 56.3858 78.0085 46.466 67.6611 5.32755
3744.33 94.902 66.2437 88.9695 63.6125 8.29973
3747.24 47.4433 81.3726 55.4019 81.9762 4.87612
3750.15 101.773 78.3218 101.557 85.179 8.68955
3753.06 85.7495 91.6591 98.5778 87.8725 7.63867
3755.98 87.4554 90.1044 63.4823 89.5094 8.70834
3758.89 97.1084 97.1476 106.468 99.6848 8.59867
3761.8 106.879 108.433 129.104 108.346 9.03538
3764.71 121.31 96.02 89.465 97.4618 10.3207
3767.63 59.8706 92.2227 73.8161 83.8478 5.47315
3770.54 95.4873 85.3779 88.2622 93.1471 8.88686
3773.45 100.776 105.941 117.363 106.258 8.47534
3776.36 121.561 110.216 113.149 114.598 9.50026
3779.28 108.312 117.954 113.28 117.761 8.6717
3782.19 123.988 118.558 126.854 132.071 9.92917
3785.1 123.372 122.429 156.077 138.878 9.22674
3788.01 119.925 117.153 133.702 134.359 9.21055
3790.93 108.161 111.777 113.297 124.131 8.56401
3793.84 107.244 104.707 125.394 116.686 8.95381
3796.75 98.717 95.2844 111.366 110.172 8.26799
3799.66 79.8918 88.3254 93.7567 94.512 7.04266
3802.58 86.3673 88.2221 78.4133 94.3475 7.37091
3805.49 98.4073 93.6501 110.873 96.6204 8.05163
3808.4 96.1756 94.2059 100.576 99.7299 7.48472
3811.31 88.0347 95.1869 87.7417 92.0671 7.41713
3814.23 101.35 102.838 87.8842 100.899 7.90769
3817.14 119.128 115.349 127.07 115.773 8.78248
3820.05 125.57 124.491 132.366 131.71 9.44054
3822.96 128.776 123.354 135.696 129.273 9.52986
3825.87 115.717 119.237 119.758 120.364 8.79467
3828.79 113.218 119.733 105.64 123.237 8.44999
3831.7 130.264 124.781 144.313 124.54 9.31111
3834.61 130.86 133.36 123.668 134.015 9.50574
3837.52 138.957 148.172 134.065 145.533 9.67671
3840.44 174.698 152.681 178.866 157.597 11.1431
3843.35 144.389 150.787 159.859 167.372 9.8641
3846.26 133.275 130.263 163.392 147.89 9.41866
3849.17 113.125 135.498 120.419 143.801 8.31873
3852.08 160.093 135.744 147.594 129.946 10.8124
3855 134.013 142.547 121.825 138.741 9.76175
3857.91 133.535 132.765 146.804 133.218 9.31208
3860.82 130.747 136.509 131.024 140.344 9.40439
3863.73 145.244 137.214 143.204 137.603 10.1829
3866.64 135.651 139.556 138.58 145.485 9.96079
3869.56 137.774 136.662 154.671 142.471 9.7298
3872.47 136.562 134.144 134.163 145.406 10.0262
3875.38 128.095 132.82 147.385 134.597 9.18065
3878.29 133.802 127.091 122.242 133.26 9.84929
3881.2 119.377 133.224 130.153 130.457 9.44282
3884.12 146.493 146.847 138.976 146.571 10.7182
3887.03 174.671 147.542 170.584 141.176 12.0118
3889.94 121.463 141.894 113.968 135.952 9.43256
3892.85 129.547 129.612 123.305 116.723 9.95455
3895.76 137.826 136.189 112.896 125.732 9.56024
3898.68 141.195 131.769 140.995 120.479 9.67446
3901.59 116.287 135.277 107.546 130.965 8.00885
3904.5 148.349 138.475 144.354 133.71 9.20967
3907.41 150.79 164.918 149.229 168.335 9.35611
3910.32 195.616 163.778 211.422 177.066 11.0093
3913.24 144.928 188.327 170.546 207.11 8.85046
3916.15 224.437 187.43 239.363 210.077 12.3253
3919.06 192.925 203.255 220.321 219.697 11.0778
3921.97 192.403 187.274 199.405 206.925 11.548
3924.88 176.495 177.237 201.049 184.477 11.128
3927.8 162.813 169.867 152.976 177.479 10.8424
3930.71 170.293 162.025 178.413 165.98 11.3573
3933.62 152.968 163.182 166.552 163.97 10.2722
3936.53 166.285 164.358 146.946 161.667 10.7837
3939.44 173.82 159.46 171.502 152.714 11.1639
3942.35 138.275 155.126 139.694 153.552 9.44916
3945.27 153.283 156.068 149.46 157.443 9.57482
3948.18 176.645 167.814 183.174 179.772 10.8327
3951.09 173.512 188.055 206.683 204.82 10.3369
3954 214.007 180.195 224.604 198.748 12.3298
3956.91 153.067 181.367 164.957 190.835 9.74272
3959.82 177.027 169.379 182.943 183.423 11.3199
3962.74 178.044 179.9 202.369 184.653 11.3332
3965.65 184.631 178.423 168.647 184.714 11.5839
3968.56 172.594 193.433 183.125 188.783 11.4787
3971.47 223.076 191.895 214.576 197.63 13.2011
3974.38 180.015 195.545 195.189 203.732 11.1422
3977.29 183.542 190.902 201.43 201.431 10.7593
3980.2 209.148 186.641 207.673 193.427 12.039
3983.12 167.232 186.971 171.178 182.362 9.94706
3986.03 184.532 167.893 168.234 162.699 10.6304
3988.94 151.915 163.561 148.686 159.639 9.17313
3991.85 154.235 162.927 161.997 165.923 9.22052
3994.76 182.629 176.244 187.086 181.348 10.4913
3997.67 191.868 186.321 194.962 186.768 10.4478
4000.58 184.466 189.567 178.257 188.074 10.1031
4003.5 192.368 185.69 191.002 189.748 10.4527
4006.41 180.236 185.163 199.984 192.245 9.27456
4009.32 182.886 196.2 185.75 206.944 9.5747
4012.23 225.479 207.259 235.098 220.46 11.3949
4015.14 213.412 211.305 240.534 222.017 10.7916
4018.05 195.024 206.443 190.419 210.976 10.086
4020.96 210.894 198.742 201.975 198.004 10.8345
4023.87 190.308 181.84 201.62 186.214 9.72921
4026.79 144.319 159.884 155.048 174.922 7.958
4029.7 145.025 157.604 168.098 167.454 8.0881
4032.61 183.469 161.326 179.216 181.518 9.54512
4035.52 155.485 193.243 197.239 209.676 8.35892
4038.43 240.776 194.29 252.572 216.284 11.7852
4041.34 186.609 229.929 199.039 240.426 9.49735
4044.25 262.401 229.652 269.667 233.51 12.5214
4047.16 239.945 247.413 231.825 252.589 11.6958
4050.07 239.894 238.827 256.275 254.773 11.4076
4052.99 236.642 265.011 276.218 281.247 11.2386
4055.9 318.499 273.197 311.247 281.786 14.3916
4058.81 264.45 282.076 257.892 284.076 12.2183
4061.72 263.278 270.89 283.089 269.433 12.2434
4064.63 284.943 278.647 267.318 277.851 12.9555
4067.54 287.721 284.486 283.145 277.837 13.421
4070.45 280.793 287.217 283.048 287.905 12.8486
4073.36 293.136 299.559 297.523 305.532 13.2527
4076.27 324.749 302.969 336.025 308.337 14.6421
4079.18 291.022 318.122 291.462 319.1 13.0436
4082.09 338.593 315.357 329.813 318.598 15.0195
4085 316.457 324.094 334.519 339.661 13.9228
4087.92 317.232 310.332 354.652 332.665 14.0902
4090.83 297.308 302.445 308.825 325.861 13.1375
4093.74 292.795 305.263 314.106 317.246 13.1861
4096.65 325.687 318.149 328.807 325.89 14.4622
4099.56 335.966 316.207 334.758 313.981 15.151
4102.47 286.968 317.936 278.378 323.666 13.5648
4105.38 330.873 307.29 357.863 313.855 14.5146
4108.29 304.029 327.39 305.326 333.463 13.6304
4111.2 347.269 321.853 337.202 332.281 15.1728
4114.11 314.26 322.52 354.317 335.344 13.7098
4117.02 306.031 320.065 314.514 331.863 13.4442
4119.93 339.904 309.038 326.757 304.225 14.6417
4122.84 281.179 315.8 271.406 316.08 12.9251
4125.75 326.317 299.134 350.079 305.896 14.2086
4128.66 289.907 330.365 296.205 334.576 12.8755
4131.57 374.872 317.369 357.443 308.942 15.4727
4134.48 287.327 344.343 273.177 335.211 12.8505
4137.39 370.831 340.177 375.012 344.283 15.7415
4140.3 362.374 343.095 384.66 363.303 15.3764
4143.21 296.079 337.04 330.238 361.307 13.0923
4146.12 352.666 328.091 369.023 346.606 14.8007
4149.03 335.528 339.707 340.556 350.534 14.2769
4151.94 330.928 330.894 342.023 339.28 14.2013
4154.85 326.226 335.547 335.262 350.573 13.8875
4157.76 349.487 319.457 374.433 337.842 14.2908
4160.67 282.658 321.909 303.829 350.51 12.0914
4163.59 333.583 313.972 373.267 331.505 13.5698
4166.5 325.675 338.145 317.417 350.573 13.8066
4169.4 355.179 345.265 361.033 346.138 14.5736
4172.31 354.94 346.682 359.964 361.381 14.6642
4175.22 329.928 350.345 363.146 362.583 13.8204
4178.13 366.167 351.184 364.639 368.54 14.8291
4181.04 357.455 360.906 377.836 374.2 14.5595
4183.95 359.096 358.156 380.126 372.231 14.571
4186.86 357.917 357.308 358.732 367.562 14.758
4189.77 354.911 371.04 363.827 370.162 14.6171
4192.68 400.292 382.085 387.928 381.71 16.1637
4195.59 391.052 375.028 393.373 375.888 16.4105
4198.5 333.738 368.512 346.362 371.567 14.0504
4201.41 380.745 366.963 374.965 373.011 15.5596
4204.32 386.405 385.266 397.705 399.113 15.7244
4207.23 388.646 376.156 424.67 398.119 15.7555
4210.14 353.417 368.575 371.981 395.745 14.3168
4213.05 363.663 377.607 390.585 399.991 14.79
4215.96 415.742 383.609 437.408 401.831 16.4101
4218.87 371.423 389.379 377.501 410.642 15.0601
4221.78 380.974 390.582 417.017 409.31 15.3987
4224.69 419.35 394.498 433.411 405.571 16.7375
4227.6 383.169 403.206 366.285 395.5 15.6527
4230.51 407.1 387.043 386.805 382.888 16.2832
4233.42 370.859 384.553 395.574 398.65 15.3607
4236.33 375.7 380.916 413.572 405.2 15.1507
4239.24 396.191 403.925 406.454 423.217 16.2009
4242.14 439.886 414.486 449.624 427.734 17.402
4245.05 407.38 419.59 427.125 431.051 16.023
4247.96 411.504 413.828 416.404 426.776 16.4226
4250.87 422.6 412.94 436.798 416.73 16.5682
4253.78 404.715 414.318 396.988 419.547 15.9673
4256.69 415.64 405.199 424.856 407.215 16.1441
4259.6 395.244 397.39 399.802 406.905 15.6102
4262.51 381.287 386.915 396.058 399.146 15.0601
4265.42 384.214 400.597 401.579 419.572 15.3327
4268.33 436.289 409.062 461.08 420.736 16.9066
4271.24 406.682 407.119 399.548 415.942 15.997
4274.14 378.385 400.366 387.199 407.894 15.3259
4277.05 416.03 390.964 436.936 408.055 16.1407
4279.96 378.475 384.203 400.03 403.388 14.8922
4282.87 358.105 402.598 373.2 422.527 14.5119
4285.78 471.214 427.028 494.352 447.894 18.0391
4288.69 451.766 457.744 476.131 481.993 17.2932
4291.6 450.25 440.308 475.497 465.887 17.1696
4294.51 418.908 430.924 446.034 453.306 16.4904
4297.41 423.613 411.43 438.387 440.873 16.6428
4300.32 391.77 428.61 438.197 458.267 15.9145
4303.23 470.446 438.437 498.216 463.235 18.224
4306.14 453.094 464.476 453.292 472.826 17.7554
4309.05 469.888 458.256 466.971 458.377 17.9855
4311.96 451.786 474.9 454.868 479.484 17.4041
4314.86 503.025 473.049 516.614 479.703 18.5995
4317.77 464.337 470.644 467.626 485.151 17.4846
4320.68 444.57 452.119 471.214 465.081 16.7312
4323.59 447.448 468.006 456.404 481.398 16.6366
4326.5 511.999 460.381 516.576 473.276 18.5919
4329.41 421.694 462.489 446.848 493.757 15.885
4332.31 453.774 454.003 517.847 488.649 16.899
4335.22 486.54 465.296 501.253 502.629 17.799
4338.13 455.576 461.105 488.788 484.081 16.6877
4341.04 441.2 447.511 462.201 467.232 16.4365
4343.95 445.756 441.806 450.706 454.804 16.478
4346.85 438.462 439.455 451.504 449.616 16.3874
4349.76 434.149 443.55 446.637 453.146 16.2283
4352.67 458.039 446.745 461.296 469.324 16.9928
4355.58 448.048 459.88 500.039 495.056 16.4289
4358.49 473.553 449.957 523.834 489.744 17.1523
4361.39 428.271 447.882 445.359 476.315 15.9565
4364.3 441.821 433.877 459.753 448.871 16.4601
4367.21 431.54 443.465 441.501 459.275 16.1738
4370.12 457.035 437.014 476.57 451.352 16.8478
4373.02 422.467 428.115 435.986 453.364 15.8534
4375.93 404.843 420.9 447.536 446.57 15.099
4378.84 435.389 450.894 456.188 481.955 16.2002
4381.75 512.449 484.056 542.142 508.133 18.2311
4384.65 504.329 495.189 526.069 523.644 18.0723
4387.56 468.789 479.841 502.72 509.07 17.0646
4390.47 466.405 487.984 498.422 511.896 16.8162
4393.38 528.758 512.279 534.546 523.007 18.7966
4396.28 541.674 520.336 536.054 521.72 19.0534
4399.19 490.577 504.783 494.56 510.283 17.3435
4402.1 482.098 493.686 500.235 504.375 17.1999
4405.01 508.385 496.98 518.329 520.999 17.728
4407.91 500.458 522.725 544.432 537.754 17.3522
4410.82 559.331 520.36 550.502 540.353 18.941
4413.73 501.291 501.295 526.125 510.985 17.3401
4416.63 443.262 496.971 456.329 512.655 15.6057
4419.54 546.359 504.771 555.509 523.768 18.6143
4422.45 524.691 544.592 559.465 575.472 17.7319
4425.35 562.725 544.32 611.442 573.704 18.7418
4428.26 545.543 550.508 550.204 573.945 18.1271
4431.17 543.257 535.831 560.19 571.4 17.973
4434.08 518.693 527.88 603.805 568.624 17.3272
4436.98 521.689 541.262 541.877 586.202 17.7659
4439.89 583.406 562.183 612.924 579.979 19.2237
4442.8 581.453 571.249 585.135 590.484 19.1768
4445.7 548.888 536.518 573.394 554.63 18.3769
4448.61 479.213 496.136 505.361 529.671 16.5058
4451.52 460.308 483.335 510.257 525.863 16.0202
4454.42 510.483 500.773 561.97 559.857 17.4116
4457.33 531.527 529.06 607.342 581.845 17.8818
4460.23 545.17 531.631 576.222 589.624 18.3645
4463.14 518.196 563.179 585.306 596.412 17.6672
4466.05 626.171 529.446 627.707 564.937 20.5431
4468.95 443.971 538.236 481.799 562.861 15.5859
4471.86 544.565 513.393 579.078 541.024 18.2403
4474.77 551.642 570.044 562.196 592.464 18.5278
4477.67 613.926 577.862 636.117 607.368 20.2014
4480.58 568.018 595.433 623.79 638.438 18.5618
4483.48 604.355 570.166 655.406 614.91 19.6659
4486.39 538.125 574.51 565.533 608.133 17.999
4489.3 581.051 558.415 603.459 585.676 19.2741
4492.2 556.068 583.191 588.035 600.055 18.39
4495.11 612.454 566.933 608.671 583.602 19.7685
4498.01 532.278 593.087 554.099 607.553 17.5519
4500.92 634.528 564.323 659.89 596.244 20.2208
4503.83 526.162 604.74 574.743 643.104 17.4301
4506.73 653.531 585.445 694.68 623.49 20.64
4509.64 576.643 606.295 601.046 648.836 18.7762
4512.54 588.712 610.752 650.781 644.92 18.9473
4515.45 666.902 622.275 682.934 667.005 20.828
4518.35 611.212 639.284 667.3 685.583 19.498
4521.26 639.738 620.199 706.516 670.258 20.1761
4524.16 609.649 615.899 636.959 676.569 19.4915
4527.07 598.311 585.133 686.232 633.205 19.3843
4529.97 547.441 582.513 576.423 645.73 18.0157
4532.88 601.788 594.01 674.537 653.731 18.9783
4535.79 632.802 625.663 710.233 690.376 19.9386
4538.69 642.4 618.052 686.358 667.775 20.058
4541.6 578.953 620.799 606.734 649.657 18.4667
4544.5 641.045 604.8 655.878 628.372 20.1245
4547.41 594.4 623.652 622.505 646.376 18.9775
4550.31 635.51 634.093 660.745 659.529 19.7481
4553.22 672.37 649.29 695.337 675.187 20.6572
4556.12 639.99 657.992 669.478 690.05 20.2331
4559.03 661.617 665.462 705.334 694.444 20.4352
4561.93 694.78 685.262 708.519 709.667 20.9054
4564.84 699.391 672.267 715.148 681.09 21.2713
4567.74 622.631 662.787 619.603 668.284 19.5916
4570.64 666.339 673.837 670.101 669.361 20.407
4573.55 732.541 716.21 718.379 699.991 22.2022
4576.45 749.75 736.652 711.494 725.187 22.479
4579.36 727.666 749.255 745.688 745.027 22.0037
4582.26 770.348 696.326 777.901 712.27 22.8229
4585.17 590.964 696.484 613.22 708.706 18.7438
4588.07 728.139 669.153 734.998 666.475 21.9399
4590.98 688.355 695.608 651.208 682.169 20.8607
4593.88 670.33 667.974 660.301 650.447 20.7365
4596.78 645.237 681.555 639.833 665.1 19.9034
4599.69 729.098 698.313 695.164 676.945 21.9332
4602.59 720.603 711.741 695.838 661.497 21.511
4605.5 685.522 716.47 593.49 664.343 20.8155
4608.4 743.285 701.047 703.703 646.963 22.2153
4611.3 674.334 711.664 643.695 677.534 20.749
4614.21 717.373 703.661 685.203 669.214 21.5303
4617.11 719.277 718.847 678.745 686.958 21.7781
4620.02 719.891 706.394 696.928 677.394 21.4446
4622.92 680.013 709.497 656.508 665.622 20.6694
4625.82 728.586 724.844 643.429 656.657 22.0148
4628.73 765.932 739.638 670.034 650.256 22.6429
4631.63 724.397 728.196 637.305 642.055 21.4991
4634.53 694.261 713.54 618.826 645.589 20.8758
4637.44 721.963 718.865 680.638 664.641 21.8354
4640.34 740.371 768.694 694.461 711.111 21.7427
4643.24 843.749 778.23 758.234 718.251 24.4573
4646.15 750.571 789.226 702.056 724.661 22.3918
4649.05 773.359 747.255 713.692 688.859 22.8744
4651.95 717.836 762.483 650.828 689.941 21.7758
4654.86 796.253 743.684 705.301 677.945 23.1193
4657.76 716.962 751.429 677.705 677.384 21.4352
4660.66 741.073 735.605 649.146 667.625 21.8823
4663.57 748.781 730.202 676.024 655.435 22.1475
4666.47 700.752 734.131 641.136 663.786 20.6445
4669.37 752.86 726.984 674.197 644.688 22.202
4672.28 727.338 770.24 618.73 673.932 21.598
4675.18 830.52 768.464 728.868 678.085 23.6288
4678.08 747.532 782.875 686.657 694.807 21.7539
4680.98 770.573 792.044 668.896 718.362 22.3509
4683.89 858.026 802.087 799.533 740.119 24.3356
4686.79 777.663 826.486 751.929 759.107 22.8302
4689.69 843.77 805.517 725.86 721.755 23.9023
4692.59 795.118 774.251 687.476 710.788 22.8845
4695.5 683.865 726.411 719.028 695.011 20.3844
4698.4 700.251 734.632 678.528 744.236 20.608
4701.3 819.78 770.417 835.151 781.912 23.1951
4704.2 791.219 776.958 832.058 799.163 22.7296
4707.11 719.875 755.447 730.28 782.71 21.1808
4710.01 755.247 731.619 785.792 765.485 21.8976
4712.91 719.737 731.356 780.384 759.543 21.0148
4715.81 719.084 711.095 712.452 745.271 21.1772
4718.71 694.464 718.161 742.976 737.193 20.6178
4721.62 740.935 739.225 756.151 769.715 21.7486
4724.52 782.277 743.968 810.018 768.301 22.2965
4727.42 708.693 727.322 738.735 752.912 20.5619
4730.32 690.996 680.843 709.982 705.087 20.5328
