wavelength spec_sum spec_optimal
3527.51 11.9216 14.9464
3530.43 12.6855 15.9914
3533.35 8.6123 11.9575
3536.26 16.2025 20.093
3539.18 6.73511 4.67949
3542.1 14.8657 20.1401
3545.02 11.6345 18.6614
3547.93 10.9192 13.3269
3550.85 24.8197 19.2802
3553.77 29.0788 29.0773
3556.68 19.5334 21.3586
3559.6 14.3406 18.8085
3562.52 21.4641 21.6221
3565.43 12.9182 18.106
3568.35 14.4316 17.3472
3571.27 25.0592 28.0711
3574.18 9.72046 11.1954
3577.1 17.4915 16.9114
3580.02 17.0229 19.1857
3582.93 14.2331 16.352
3585.85 18.5931 21.4082
3588.77 16.1588 20.1929
3591.68 17.1113 22.2164
3594.6 17.2289 20.23
3597.52 16.8469 20.1301
3600.44 24.2379 27.3103
3603.35 22.726 26.1908
3606.27 14.5759 20.2323
3609.19 17.6782 23.6095
3612.1 11.0007 15.4055
3615.02 16.6881 20.7087
3617.94 21.0065 25.4322
3620.85 12.93 18.2734
3623.77 19.6697 23.4951
3626.69 16.0275 13.5583
3629.6 12.1136 13.1792
3632.52 18.434 22.0072
3635.44 11.1482 16.2555
3638.35 17.9719 17.8516
3641.27 20.3649 21.8157
3644.18 9.64048 7.30291
3647.1 16.727 18.3413
3650.02 16.0734 16.6373
3652.93 13.5977 13.7839
3655.85 12.8063 14.8945
3658.77 13.7498 10.7165
3661.68 22.2153 25.3304
3664.6 18.3796 21.7871
3667.52 19.7023 19.3973
3670.43 15.4103 19.5772
3673.35 11.041 11.7757
3676.27 14.1628 13.5769
3679.18 10.597 13.1539
3682.1 14.5633 15.4521
3685.02 17.8224 19.6066
3687.93 15.4172 20.6226
3690.85 15.3786 15.2228
3693.76 13.3479 14.4117
3696.68 18.8569 20.8388
3699.6 11.4261 9.976
3702.51 23.0501 23.5711
3705.43 21.3203 21.0666
3708.35 15.759 16.9338
3711.26 13.1005 11.7036
3714.18 21.7961 21.552
3717.1 13.1397 10.3028
3720.01 17.8212 19.002
3722.93 19.1161 16.5555
3725.84 13.8713 17.3119
3728.76 18.1976 14.3525
3731.68 16.1866 18.5751
3734.59 12.5911 13.0403
3737.51 16.0286 16.4436
3740.42 14.1017 11.231
3743.34 20.9952 21.2567
3746.26 12.7411 13.1081
3749.17 21.3711 23.8279
3752.09 20.3422 22.8891
3755 13.9372 14.6269
3757.92 21.2443 24.2588
3760.84 23.5455 29.1221
3763.75 19.6344 19.9955
3766.67 17.1587 16.3405
3769.58 16.264 19.357
3772.5 20.5295 25.4957
3775.42 22.5448 24.3455
3778.33 21.6512 24.1072
3781.25 20.1989 26.7543
3784.16 28.8761 32.588
3787.08 22.7253 27.6487
3790 20.9605 23.1957
3792.91 18.9273 25.4161
3795.83 19.1905 22.3412
3798.74 16.1559 18.6177
3801.66 15.4248 15.4268
3804.57 18.906 21.5895
3807.49 19.8379 19.3791
3810.41 16.2969 16.7556
3813.32 17.643 16.6088
3816.24 23.1449 23.7725
3819.15 22.6214 24.5204
3822.07 24.1297 24.8813
3824.98 19.1703 21.7239
3827.9 17.2807 18.9763
3830.82 23.9051 25.6676
3833.73 20.5997 21.7828
3836.65 23.0639 23.3633
3839.56 30.7652 30.8776
3842.48 24.3143 27.344
3845.39 22.3831 27.6707
3848.31 18.6811 20.2067
3851.22 24.7103 24.548
3854.14 20.0168 20.0697
3857.05 22.6502 23.9595
3859.97 20.0161 21.2041
3862.89 21.6032 22.9729
3865.8 19.9509 22.0409
3868.72 22.7605 24.3869
3871.63 20.0741 20.9736
3874.55 22.4611 22.87
3877.46 20.0892 18.8179
3880.38 18.4843 19.8607
3883.29 18.954 21.0458
3886.21 25.3388 25.6414
3889.12 14.3739 17.0024
3892.04 15.4578 18.2653
3894.95 16.9248 16.5985
3897.87 19.6879 20.5991
3900.78 15.8362 15.5941
3903.7 20.7827 20.7948
3906.61 20.8624 21.3425
3909.53 29.0389 30.0305
3912.44 21.683 24.0703
3915.36 32.1812 33.5566
3918.27 29.0653 30.6888
3921.19 26.9369 27.6042
3924.1 24.938 27.654
3927.02 20.2859 20.9106
3929.93 22.15 24.2273
3932.85 20.8946 22.4808
3935.76 19.8316 19.7244
3938.68 21.0502 22.8667
3941.59 17.0405 18.5145
3944.51 20.7099 19.7045
3947.42 22.3926 23.997
3950.33 24.9611 26.9149
3953.25 26.3229 29.0833
3956.16 20.6213 21.2369
3959.08 20.782 23.4168
3961.99 23.5253 25.7463
3964.91 23.2663 21.3373
3967.82 19.7523 23.0295
3970.74 25.5931 26.8324
3973.65 20.499 24.2713
3976.56 22.7991 24.9062
3979.48 22.6332 25.5233
3982.39 19.6512 20.9152
3985.31 20.1825 20.4358
3988.22 16.8376 17.9517
3991.14 19.0119 19.4524
3994.05 20.6328 22.3498
3996.96 21.9554 23.1411
3999.88 20.9402 21.0474
4002.79 20.9222 22.4215
4005.71 24.7221 23.3426
4008.62 20.8638 21.5508
4011.53 26.5176 27.1273
4014.45 24.3428 27.5896
4017.36 22.1988 21.7327
4020.28 22.0732 22.9043
4023.19 23.2193 22.7082
4026.1 16.2026 17.3778
4029.02 16.7109 18.7313
4031.93 22.0745 19.8602
4034.85 17.6622 21.7135
4037.76 24.7148 27.6517
4040.67 21.3304 21.666
4043.59 28.4155 29.19
4046.5 24.35 24.9545
4049.41 26.0759 27.4244
4052.33 26.9801 29.3875
4055.24 31.6194 32.9345
4058.16 28.0193 27.149
4061.07 26.6746 29.6372
4063.98 27.4779 27.8417
4066.9 27.0168 29.3268
4069.81 27.8956 29.153
4072.72 30.2148 30.4869
4075.64 31.1341 34.2635
4078.55 28.4851 29.5601
4081.46 31.5189 33.2949
4084.38 31.4295 33.59
4087.29 32.9132 35.4664
4090.2 31.6772 30.7267
4093.12 31.2177 31.1098
4096.03 31.2444 32.4287
4098.94 31.5391 32.8701
4101.86 26.3359 27.209
4104.77 33.3774 34.8382
4107.68 29.8083 29.6016
4110.59 32.5949 32.545
4113.51 33.0394 34.0638
4116.42 29.062 30.1114
4119.33 32.1975 31.1541
4122.25 24.7967 25.7918
4125.16 30.5998 33.1093
4128.07 27.098 27.891
4130.98 34.6999 33.5234
4133.9 26.2426 25.503
4136.81 31.7306 34.8665
4139.72 31.7049 35.6107
4142.63 28.6921 30.4286
4145.55 32.8801 33.8485
4148.46 31.1821 31.0994
4151.37 29.0661 31.0745
4154.28 29.7126 30.3161
4157.2 31.297 33.6717
4160.11 27.4444 27.193
4163.02 30.7975 33.2322
4165.93 26.5515 28.1059
4168.85 30.1767 31.7888
4171.76 29.6908 31.5147
4174.67 29.2079 31.5922
4177.58 32.0561 31.5429
4180.5 31.5394 32.4794
4183.41 31.2463 32.479
4186.32 30.2157 30.4654
4189.23 30.6081 30.7109
4192.14 32.9384 32.5345
4195.06 30.2287 32.7848
4197.97 27.7226 28.6889
4200.88 30.9215 30.872
4203.79 31.3205 32.5361
4206.7 31.2695 34.5401
4209.61 29.2521 30.0761
4212.53 30.0494 31.3938
4215.44 33.3756 34.9723
4218.35 30.4525 30.0203
4221.26 31.5593 32.9835
4224.17 32.7878 34.1081
4227.08 29.2997 28.6733
4230 29.9727 30.1438
4232.91 28.6133 30.687
4235.82 31.4515 31.9353
4238.73 29.6754 31.2599
4241.64 32.5114 34.4467
4244.55 32.9835 32.6129
4247.46 30.5704 31.6749
4250.38 31.8948 33.1134
4253.29 29.6982 30.0154
4256.2 31.3942 32.0127
4259.11 29.3147 30.0453
4262.02 28.8154 29.6829
4264.93 27.7638 30.0109
4267.84 32.5112 34.3624
4270.75 29.0191 29.7107
4273.66 27.1239 28.7127
4276.57 30.7857 32.326
4279.49 28.8758 29.5319
4282.4 27.2326 27.4723
4285.31 34.5779 36.3095
4288.22 33.5987 34.869
4291.13 34.751 34.7286
4294.04 30.0843 32.4875
4296.95 31.4026 31.8343
4299.86 29.4302 31.7202
4302.77 33.6523 35.9608
4305.68 31.3416 32.6113
4308.59 33.1399 33.4868
4311.5 31.0562 32.5016
4314.41 35.005 36.7655
4317.32 32.5402 33.1377
4320.23 31.7034 33.2572
4323.14 33.0219 32.0821
4326.05 34.9628 36.1361
4328.96 30.4759 31.1259
4331.87 32.7892 35.8976
4334.78 35.322 34.5959
4337.69 34.4368 33.5725
4340.6 30.9758 31.5923
4343.51 30.9377 30.6631
4346.42 29.6959 30.5703
4349.33 29.8873 30.1059
4352.24 31.0959 30.9482
4355.15 32.4624 33.3926
4358.06 33.1828 34.8263
4360.97 28.2874 29.4779
4363.88 28.9467 30.2983
4366.79 28.3344 28.975
4369.7 29.7427 31.1548
4372.61 27.4467 28.3876
4375.52 29.1322 29.0278
4378.43 28.8483 29.4864
4381.34 34.4194 34.9258
4384.25 32.8342 33.7858
4387.15 30.7911 32.1871
4390.06 31.8237 31.8274
4392.97 32.162 34.0535
4395.88 33.235 34.0689
4398.79 32.1869 31.3641
4401.7 30.2609 31.6557
4404.61 31.6207 32.7376
4407.52 32.3169 34.3203
4410.43 34.9126 34.6393
4413.34 32.1551 33.0521
4416.24 28.0666 28.6222
4419.15 33.3445 34.7919
4422.06 33.6304 34.9885
4424.97 36.4693 38.1868
4427.88 34.5549 34.3131
4430.79 35.0395 34.8833
4433.7 35.0828 37.5404
4436.6 32.9418 33.6375
4439.51 37.3152 37.9789
4442.42 36.5896 36.2077
4445.33 35.1356 35.4276
4448.24 31.5378 31.1587
4451.14 30.2404 31.3957
4454.05 33.9799 34.5123
4456.96 36.0771 37.2152
4459.87 34.7872 35.2238
4462.78 34.3488 35.7071
4465.68 38.462 38.1887
4468.59 29.4379 29.2272
4471.5 34.9637 35.0354
4474.41 33.7508 33.9281
4477.32 37.7557 38.2709
4480.22 35.8681 37.4114
4483.13 38.17 39.1891
4486.04 33.3683 33.7063
4488.95 34.8272 35.8611
4491.85 33.5608 34.8306
4494.76 36.4694 35.9434
4497.67 33.1105 32.6104
4500.58 38.2853 38.697
4503.48 33.1059 33.6027
4506.39 39.514 40.473
4509.3 33.207 34.9012
4512.2 35.3621 37.6564
4515.11 38.8212 39.4026
4518.02 36.997 38.3759
4520.92 39.244 40.4991
4523.83 35.7305 36.3998
4526.74 37.1068 39.0969
4529.65 32.9648 32.7453
4532.55 38.4845 38.2038
4535.46 38.6155 40.1085
4538.37 38.19 38.6543
4541.27 33.526 34.0679
4544.18 35.8843 36.7357
4547.08 34.2137 34.7703
4549.99 35.9546 36.8011
4552.9 38.0372 38.6278
4555.8 36.4466 37.0933
4558.71 37.3671 38.9794
4561.62 39.5561 39.0512
4564.52 38.7548 39.3136
4567.43 32.8877 33.9594
4570.33 37.193 36.6389
4573.24 38.6928 39.1748
4576.15 38.0852 38.6852
4579.05 38.5953 40.427
4581.96 40.898 42.0664
4584.86 30.0736 33.0555
4587.77 37.3441 39.5073
4590.67 34.6731 34.8986
4593.58 34.2493 35.2765
4596.49 34.2664 34.0792
4599.39 36.4739 36.9064
4602.3 37.0012 36.8164
4605.2 32.8631 31.2997
4608.11 37.261 36.982
4611.01 33.2235 33.7134
4613.92 35.8794 35.7515
4616.82 36.5158 35.2879
4619.73 36.3529 36.1071
4622.63 33.7177 33.8877
4625.54 33.8631 33.0956
4628.44 35.6913 34.3416
4631.35 36.3214 32.5503
4634.25 32.5933 31.4938
4637.16 35.6652 34.5155
4640.06 39.0436 35.1139
4642.97 39.8959 38.206
4645.87 36.8126 35.2532
4648.77 38.79 35.738
4651.68 33.5257 32.49
4654.58 38.1921 35.1089
4657.49 35.4338 33.6454
4660.39 35.5506 32.1531
4663.3 35.3326 33.4048
4666.2 36.1523 31.6171
4669.1 35.7924 33.1813
4672.01 34.0072 30.3975
4674.91 40.196 35.7599
4677.82 37.1736 33.6425
4680.72 36.5847 32.7383
4683.62 42.6048 39.0952
4686.53 38.3022 36.7328
4689.43 40.2916 35.4512
4692.33 36.82 33.5502
4695.24 39.66 35.0766
4698.14 36.7354 33.0938
4701.04 43.8537 40.7162
4703.95 43.9487 40.5491
4706.85 38.5506 35.5686
4709.75 41.7434 38.2655
4712.66 41.9518 37.9865
4715.56 36.8337 34.6572
4718.46 37.4782 36.1169
4721.37 39.5831 36.7379
4724.27 41.4856 39.3146
4727.17 39.1463 35.818
4730.08 36.5147 34.3781
4732.98 33.1339 32.2202
4735.88 36.0547 34.0192
4738.78 34.8194 34.253
4741.69 40.3733 38.8279
4744.59 39.1609 36.1314
4747.49 37.5546 35.5105
4750.39 39.2237 37.5049
4753.29 35.5701 33.4079
4756.2 34.8738 33.4159
4759.1 38.0719 36.9264
4762 37.8762 36.4803
4764.9 37.1535 34.2776
4767.81 36.2555 34.834
4770.71 35.5541 32.4995
4773.61 39.0585 37.2059
4776.51 35.8387 33.6353
4779.41 37.9799 35.7818
4782.31 34.6652 33.7236
4785.22 34.8035 33.8069
4788.12 38.4598 36.1731
4791.02 38.9212 37.7245
4793.92 37.8217 36.1057
4796.82 32.8531 31.6684
4799.72 37.6888 36.2103
4802.62 36.3046 34.6446
4805.52 39.9127 38.5925
4808.43 37.9931 36.3174
4811.33 38.4156 36.1154
4814.23 35.8969 34.8798
4817.13 37.9898 36.5598
4820.03 38.8033 36.4569
4822.93 36.6356 35.2503
4825.83 38.2687 35.7793
4828.73 41.1056 39.287
4831.63 39.7494 37.301
4834.53 38.2832 36.2864
4837.43 37.4002 34.7699
4840.33 42.0759 38.7337
4843.23 38.9132 37.5988
4846.13 40.3629 38.9736
4849.03 38.5871 37.0506
4851.93 40.7138 38.5192
4854.83 40.3538 37.8813
4857.73 43.9147 41.4462
4860.63 37.882 36.9503
4863.53 39.6348 37.8187
4866.43 43.3338 41.3809
4869.33 39.792 38.129
4872.23 40.9181 37.4802
4875.13 39.1823 38.2495
4878.03 41.9409 40.2904
4880.93 39.0784 38.5434
4883.83 42.9408 40.5724
4886.73 43.5468 41.4305
4889.63 44.4121 42.879
4892.53 46.2135 44.2802
4895.42 39.3975 38.6736
4898.32 47.3562 45.9818
4901.22 44.2745 42.7003
4904.12 46.91 45.7432
4907.02 42.217 39.9989
4909.92 43.8025 41.3329
4912.82 42.5438 41.3927
4915.72 42.6667 41.0823
4918.61 46.7656 45.498
4921.51 40.1054 38.2742
4924.41 38.7098 37.638
4927.31 40.7528 38.4724
4930.21 40.0749 38.3913
4933.1 42.3614 41.5377
4936 41.1059 39.0219
4938.9 38.9821 36.2506
4941.8 39.7232 38.1305
4944.7 37.2839 35.9364
4947.59 38.7012 37.2596
4950.49 39.2405 37.7248
4953.39 39.1152 37.281
4956.29 39.4247 37.5593
4959.18 35.3846 33.7199
4962.08 37.054 34.5867
4964.98 39.8544 38.38
4967.88 41.5231 39.1436
4970.77 42.8185 41.3195
4973.67 38.2964 37.2283
4976.57 40.2474 38.4541
4979.46 40.9312 39.3248
4982.36 41.9134 39.8486
4985.26 42.0476 41.1942
4988.15 44.2206 41.6163
4991.05 38.6194 36.0325
4993.95 39.0107 37.161
4996.84 41.7801 39.8922
4999.74 40.5283 39.1709
5002.64 43.2734 42.163
5005.53 41.4819 40.4709
5008.43 42.3892 40.2819
5011.32 40.5362 38.5573
5014.22 41.1137 39.8923
5017.12 43.134 41.7713
5020.01 43.7061 43.4977
5022.91 45.0033 43.6824
5025.8 44.4158 42.1814
5028.7 40.8859 39.0899
5031.59 40.4187 38.8262
5034.49 45.3862 43.5974
5037.39 44.8823 43.5927
5040.28 42.7647 39.9058
5043.18 44.9358 42.809
5046.07 46.3786 44.5807
5048.97 45.6103 43.4512
5051.86 46.7986 45.5351
5054.76 42.1583 40.7089
5057.65 44.3112 42.2991
5060.55 43.2049 41.7188
5063.44 44.8317 42.6494
5066.34 46.0885 45.346
5069.23 44.2192 42.6781
5072.12 45.2041 43.1117
5075.02 43.0903 41.9324
5077.91 45.9909 44.0325
5080.81 44.4977 42.0725
5083.7 45.9547 44.1482
5086.6 44.9628 43.0039
5089.49 45.1023 43.4394
5092.38 44.7498 43.296
5095.28 46.2752 43.4336
5098.17 45.9324 44.4405
5101.06 43.5164 42.1596
5103.96 44.6599 42.7376
5106.85 47.489 45.1824
5109.74 45.1623 43.1238
5112.64 45.1992 43.5942
5115.53 46.8708 44.3861
5118.42 41.4615 40.1317
5121.32 43.8463 43.2016
5124.21 46.9716 45.4166
5127.1 45.6777 43.0016
5130 42.9532 40.8476
5132.89 45.1992 44.004
5135.78 48.5205 46.5038
5138.67 43.7552 41.3561
5141.57 46.9711 45.4693
5144.46 45.6166 44.512
5147.35 46.1504 44.0732
5150.24 46.9804 45.8665
5153.14 47.4452 44.743
5156.03 48.0207 46.0201
5158.92 47.2132 45.6043
5161.81 44.1062 42.1991
5164.7 44.8685 43.0705
5167.6 46.6551 44.9555
5170.49 43.4246 41.1167
5173.38 48.8604 46.2611
5176.27 47.3345 45.5806
5179.16 45.5117 44.3204
5182.05 48.043 45.9536
5184.94 48.2648 47.3061
5187.84 49.1921 47.6542
5190.73 48.1635 46.6314
5193.62 51.2777 49.2686
5196.51 46.729 45.0782
5199.4 47.7765 46.4257
5202.29 48.516 46.5416
5205.18 45.4894 44.0181
5208.07 46.8262 45.9776
5210.96 46.0861 44.6468
5213.85 49.0132 46.984
5216.74 47.3223 46.4781
5219.63 48.9962 46.4245
5222.52 43.4191 41.6348
5225.41 45.3113 43.2613
5228.3 48.0556 45.78
5231.19 45.3566 43.8953
5234.08 44.9585 43.2415
5236.97 45.6414 44.9374
5239.86 46.9803 45.6444
5242.75 46.5146 45.1656
5245.64 45.6736 45.0746
5248.53 45.0404 43.1548
5251.42 44.155 42.1578
5254.31 42.9448 41.136
5257.2 44.3248 42.6439
5260.09 47.0003 45.2328
5262.98 48.46 45.5666
5265.86 46.0165 44.8103
5268.75 43.1296 42.677
5271.64 44.7441 43.2524
5274.53 48.4857 46.4948
5277.42 44.8643 42.98
5280.31 48.2043 46.2725
5283.2 46.4307 44.856
5286.08 47.706 45.6667
5288.97 46.6327 44.9807
5291.86 45.7079 44.46
5294.75 46.9495 44.8874
5297.64 50.3035 48.9815
5300.52 51.8578 49.5928
5303.41 48.0769 46.5938
5306.3 47.2963 46.6738
5309.19 48.6068 47.7188
5312.07 50.2462 48.997
5314.96 49.1253 47.7112
5317.85 50.6279 47.9026
5320.74 50.8615 49.7082
5323.62 51.5603 49.174
5326.51 51.4912 49.5669
5329.4 51.4865 50.0353
5332.28 44.6499 43.4746
5335.17 53.5166 51.7325
5338.06 48.8899 47.9516
5340.94 46.9032 45.3388
5343.83 48.2867 46.9865
5346.72 48.7765 46.8925
5349.6 48.2983 46.6646
5352.49 48.7155 47.0567
5355.38 46.6558 45.0202
5358.26 50.4763 49.1875
5361.15 53.1619 51.3079
5364.03 52.7125 50.8182
5366.92 51.5186 49.49
5369.8 52.7785 51.8213
5372.69 55.654 54.1799
5375.58 52.627 51.0707
5378.46 48.0501 46.6971
5381.35 49.4789 48.664
5384.23 49.957 49.3141
5387.12 52.5934 51.1723
5390 55.1019 54.0715
5392.89 55.0767 53.9859
5395.77 53.6536 51.8197
5398.66 55.52 54.1483
5401.54 54.0449 53.0999
5404.42 50.5061 49.5508
5407.31 49.1615 48.7724
5410.19 51.6845 50.0774
5413.08 48.5959 46.8125
5415.96 53.4622 51.8183
5418.85 47.9612 47.3395
5421.73 50.7524 49.8654
5424.61 51.9645 51.1308
5427.5 50.6781 49.9517
5430.38 53.6697 51.7561
5433.26 53.8636 52.1556
5436.15 55.5099 54.4097
5439.03 55.1871 54.0734
5441.91 54.92 52.0805
5444.8 54.0457 52.8602
5447.68 53.6563 52.0344
5450.56 54.5652 53.7181
5453.45 51.3169 50.9382
5456.33 53.6317 52.6114
5459.21 52.6192 51.7313
5462.09 53.9071 52.6522
5464.98 54.1533 53.2337
5467.86 53.5441 52.8692
5470.74 52.7898 51.0607
5473.62 54.5851 52.7293
5476.51 53.3656 52.1467
5479.39 50.9311 49.4561
5482.27 52.5738 51.9888
5485.15 52.3209 50.8076
5488.03 50.5751 48.8118
5490.91 54.1253 53.1533
5493.8 53.0827 51.7977
5496.68 54.1353 53.0697
5499.56 51.4078 50.058
5502.44 52.2009 51.8985
5505.32 52.3806 51.7036
5508.2 53.5547 52.6241
5511.08 58.532 57.1599
5513.96 52.9799 51.4238
5516.84 50.6486 50.5941
5519.73 55.155 55.0443
5522.61 55.5126 53.4644
5525.49 56.1853 55.4431
5528.37 53.0821 51.9232
5531.25 51.4069 50.309
5534.13 52.7935 52.1525
5537.01 54.9491 53.5994
5539.89 52.8083 52.6742
5542.77 52.3917 50.8698
5545.65 53.6015 52.1477
5548.53 53.1452 52.1116
5551.41 52.9085 51.6602
5554.28 52.6443 51.0827
5557.16 52.2412 51.7199
5560.04 54.5335 53.7027
5562.92 55.1231 54.3546
5565.8 58.571 57.7738
5568.68 59.4603 59.3418
5571.56 61.3496 61.5668
5574.44 53.7768 53.7326
5577.32 56.69 55.0306
5580.19 62.6572 62.9225
5583.07 58.4301 55.9484
5585.95 54.8657 54.6812
5588.83 54.6031 53.518
5591.71 52.9503 51.6445
5594.59 51.9615 50.9824
5597.46 55.4753 54.875
5600.34 53.1615 52.7586
5603.22 56.1928 55.4869
5606.1 59.6604 57.6808
5608.97 54.3287 54.0584
5611.85 55.4415 53.8715
5614.73 51.5968 50.6595
5617.61 53.921 53.6857
5620.48 55.1609 54.7471
5623.36 57.4565 56.3432
5626.24 54.3478 53.7857
5629.11 53.8039 53.2139
5631.99 58.1573 58.5098
5634.87 58.6207 57.6953
5637.74 55.7076 54.2382
5640.62 56.9053 55.1462
5643.49 54.3659 54.8858
5646.37 52.7927 53.4484
5649.25 55.991 55.4728
5652.12 55.4726 54.0699
5655 54.7728 53.8536
5657.87 53.1115 54.1109
5660.75 54.734 53.809
5663.63 55.183 55.4671
5666.5 51.7687 51.7447
5669.38 52.8982 52.6838
5672.25 52.215 51.7669
5675.13 55.9513 55.7714
5678 52.3512 51.689
5680.88 53.9925 53.5996
5683.75 53.027 52.5053
5686.62 52.8665 51.8362
5689.5 55.7415 55.8166
5692.37 57.551 56.0934
5695.25 52.6274 53.1002
5698.12 56.224 56.2443
5701 56.4009 56.3081
5703.87 54.6652 55.3171
5706.74 54.883 54.9956
5709.62 55.7345 56.1055
5712.49 52.387 52.3465
5715.36 59.5361 58.4648
5718.24 53.5596 53.1903
5721.11 56.7478 56.8792
5723.98 54.5845 54.6353
5726.86 56.1232 55.5606
5729.73 56.6482 55.5963
5732.6 53.3115 53.3776
5735.48 57.3237 56.1843
5738.35 55.1752 55.1602
5741.22 56.924 56.3448
5744.09 56.2453 55.1568
5746.97 57.2396 56.5442
5749.84 57.3462 55.5363
5752.71 55.4114 54.6425
5755.58 56.8005 55.9099
5758.45 59.0043 57.632
5761.33 60.0119 58.7462
5764.2 55.2297 54.3769
5767.07 55.9 53.902
5769.94 61.0162 60.241
5772.81 56.7369 55.3334
5775.68 58.1829 55.7376
5778.55 60.3729 57.8791
5781.43 55.4516 53.5555
5784.3 56.2616 53.7871
5787.17 61.4324 58.1533
5790.04 57.7615 55.0413
5792.91 57.9478 54.973
5795.78 58.2403 54.9988
5798.65 58.3899 55.9487
5801.52 59.6094 55.9122
5804.39 61.166 57.5459
5807.26 58.6972 54.5092
5810.13 64.7915 59.7841
5813 62.8116 57.7811
5815.87 66.9623 62.1321
5818.74 63.2507 58.647
5821.61 66.4211 60.6496
5824.48 62.7622 57.1298
5827.34 62.1988 58.1763
5830.21 62.6098 57.6456
5833.08 65.0845 59.6272
5835.95 64.8959 59.2861
5838.82 63.1986 57.0685
5841.69 62.6799 57.8646
5844.56 62.8625 58.1262
5847.43 64.5704 58.9376
5850.29 65.2791 59.1436
5853.16 62.6424 57.2898
5856.03 60.3088 55.7003
5858.9 64.7971 60.9242
5861.77 68.4396 63.3665
5864.63 64.4981 59.7885
5867.5 59.273 55.9225
5870.37 62.3179 57.6686
5873.24 62.1338 57.1693
5876.1 63.8124 60.2273
5878.97 59.8541 55.1995
5881.84 65.1428 59.8298
5884.7 63.2866 57.9529
5887.57 68.9755 63.4371
5890.44 64.5946 59.6765
5893.3 59.3862 56.0626
5896.17 65.0082 61.2802
5899.04 58.5559 55.7603
5901.9 58.6189 55.9282
5904.77 60.5471 56.2899
5907.63 60.481 57.2046
5910.5 61.3812 58.8527
5913.37 60.1547 56.9913
5916.23 62.9622 59.3599
5919.1 64.035 60.3852
5921.96 65.8693 61.9981
5924.83 66.7834 63.1596
5927.69 64.8645 60.9641
5930.56 64.2673 62.0185
5933.42 61.7623 58.8393
5936.29 60.1696 57.1027
5939.15 62.871 59.1667
5942.02 61.0872 58.0322
5944.88 59.9056 56.9757
5947.74 62.8965 59.5433
5950.61 64.2161 60.8487
5953.47 60.7036 57.1224
5956.34 62.0864 58.3754
5959.2 63.5124 59.4008
5962.06 63.9385 61.2781
5964.93 64.8573 61.6032
5967.79 63.1292 59.7863
5970.65 61.2558 58.8637
