wavelength spectrum_sum 3smoothed_sum spectrum_optimal 3smoothed_optimal
3507.1 35.499 19.6633 36.964 20.4458
3510.01 23.491 32.5822 24.3734 34.4968
3512.93 38.7566 30.9333 42.1528 34.241
3515.85 30.5524 32.6136 36.1967 35.9266
3518.76 28.5319 31.9057 29.4302 33.2945
3521.68 36.633 29.352 34.2567 27.3639
3524.6 22.8913 28.5825 18.4047 26.3445
3527.51 26.2232 25.8394 26.3722 24.5046
3530.43 28.4037 24.742 28.737 25.6554
3533.35 19.5992 28.4753 21.857 29.3028
3536.26 37.4232 24.2642 37.3143 22.664
3539.18 15.7703 29.481 8.8207 28.2117
3542.1 35.2497 26.3106 38.5 27.8236
3545.02 27.9119 29.881 36.1502 33.5979
3547.93 26.4813 38.4008 26.1434 33.525
3550.85 60.8093 53.0744 38.2816 40.9449
3553.77 71.9326 60.5015 58.4097 46.6935
3556.68 48.7627 52.2703 43.3892 46.8101
3559.6 36.1156 46.4657 38.6314 42.3045
3562.52 54.5188 41.2404 44.8929 40.5067
3565.43 33.0868 41.6255 37.9957 39.8941
3568.35 37.2708 45.2049 36.7936 44.9898
3571.27 65.2572 42.6848 60.1801 40.4117
3574.18 25.5263 45.7045 24.2614 40.4983
3577.1 46.33 39.1155 37.0535 34.6088
3580.02 45.4903 43.4021 42.5116 38.7389
3582.93 38.386 44.8349 36.6516 42.5737
3585.85 50.6285 44.4852 48.5579 43.8575
3588.77 44.4411 47.5388 46.3629 48.8556
3591.68 47.547 46.7909 51.646 48.5461
3594.6 48.3847 47.9204 47.6293 49.095
3597.52 47.8295 55.2656 48.0096 53.8767
3600.44 69.5827 61.1317 65.9912 59.3754
3603.35 65.983 59.4584 64.1254 60.106
3606.27 42.8097 53.7741 50.2015 57.8997
3609.19 52.5296 42.8044 59.3723 49.6129
3612.1 33.0738 45.4584 39.2649 50.7121
3615.02 50.7718 49.5078 53.499 53.1198
3617.94 64.6777 51.9128 66.5955 56.1975
3620.85 40.289 55.6653 48.4979 59.4316
3623.77 62.0293 51.1574 63.2015 49.5544
3626.69 51.1538 50.7699 36.9638 45.5253
3629.6 39.1265 50.1788 36.4106 44.9947
3632.52 60.256 45.4195 61.6096 48.0429
3635.44 36.876 52.4275 46.1084 53.0044
3638.35 60.1505 55.3294 51.2952 53.6331
3641.27 68.9616 54.0456 63.4956 45.4389
3644.18 33.0247 53.3157 21.5258 46.5879
3647.1 57.9607 49.105 54.7424 42.18
3650.02 56.3295 54.1588 50.2719 49.0567
3652.93 48.1861 50.1328 42.1558 46.1752
3655.85 45.8827 47.9555 46.098 40.6036
3658.77 49.7978 58.9982 33.557 53.2952
3661.68 81.3142 66.3648 80.2307 61.1929
3664.6 67.9824 74.3089 69.7909 70.9503
3667.52 73.6301 66.5966 62.8293 65.5757
3670.43 58.1772 57.9699 64.1068 55.3047
3673.35 42.1024 51.608 38.9779 49.5017
3676.27 54.5444 45.9528 45.4204 42.9554
3679.18 41.2117 50.9813 44.4679 47.5566
3682.1 57.1878 56.3529 52.7815 54.9706
3685.02 70.6593 63.1836 67.6624 64.112
3687.93 61.7036 64.831 71.8919 64.386
3690.85 62.1302 59.4209 53.6036 58.9165
3693.76 54.4288 64.7217 51.2539 59.9015
3696.68 77.6063 59.8309 74.8472 54.0951
3699.6 47.4577 73.8914 36.1841 65.7869
3702.51 96.6103 78.08 86.3294 66.8071
3705.43 90.1722 84.6787 77.9076 75.8224
3708.35 67.2536 71.2783 63.2303 61.7529
3711.26 56.4092 72.7848 44.1208 63.1263
3714.18 94.6917 69.5649 82.0279 55.2458
3717.1 57.5937 77.0303 39.5886 65.1089
3720.01 78.8054 73.8932 73.7101 59.3771
3722.93 85.2805 75.5044 64.8325 68.9935
3725.84 62.4274 76.7762 68.4379 63.5164
3728.76 82.6208 73.0621 57.2788 66.8509
3731.68 74.1379 71.6449 74.8361 61.7169
3734.59 58.1759 69.0082 53.0357 65.1287
3737.51 74.7107 66.3975 67.5144 55.7002
3740.42 66.3059 80.2015 46.5505 67.6703
3743.34 99.5879 75.6208 88.9459 63.6233
3746.26 60.9687 87.9068 55.3735 81.979
3749.17 103.164 87.7326 101.618 85.1804
3752.09 99.0652 90.2338 98.5502 87.9159
3755 68.4724 90.9451 63.5798 89.5309
3757.92 105.298 97.1712 106.463 99.694
3760.84 117.743 107.367 129.04 108.319
3763.75 99.0584 101.382 89.4544 97.4355
3766.67 87.3439 89.9778 73.8127 83.8512
3769.58 83.5311 92.4216 88.2865 93.1731
3772.5 106.39 102.604 117.42 106.309
3775.42 117.892 112.842 113.221 114.618
3778.33 114.246 113.231 113.211 117.771
3781.25 107.557 125.657 126.881 132.054
3784.16 155.169 128.656 156.071 138.894
3787.08 123.244 131.046 133.731 134.371
3790 114.727 114.177 113.311 124.146
3792.91 104.561 108.765 125.396 116.68
3795.83 107.009 100.834 111.333 110.146
3798.74 90.9334 95.1946 93.7102 94.4928
3801.66 87.6415 95.6719 78.4353 94.3422
3804.57 108.441 103.652 110.881 96.62
3807.49 114.875 106.197 100.543 99.7479
3810.41 95.2756 104.761 87.8192 92.0994
3813.32 104.133 112.443 87.9357 100.968
3816.24 137.919 126.047 127.148 115.854
3819.15 136.089 140.187 132.479 131.807
3822.07 146.553 133.394 135.794 129.344
3824.98 117.54 123.685 119.757 120.405
3827.9 106.961 124.621 105.663 123.257
3830.82 149.362 128.745 144.351 124.577
3833.73 129.914 142.029 123.717 134.023
3836.65 146.81 158.12 134.002 145.515
3839.56 197.635 167.357 178.827 157.575
3842.48 157.624 167.225 159.896 167.358
3845.39 146.414 142.443 163.352 147.889
3848.31 123.292 144.742 120.42 143.81
3851.22 164.52 140.748 147.657 129.971
3854.14 134.433 150.792 121.836 138.755
3857.05 153.422 141.527 146.772 133.223
3859.97 136.727 146.315 131.06 140.36
3862.89 148.796 141.353 143.249 137.646
3865.8 138.535 148.881 138.63 145.526
3868.72 159.313 146.486 154.698 142.496
3871.63 141.611 153.531 134.159 145.451
3874.55 159.67 148.387 147.495 134.664
3877.46 143.881 145.638 122.339 133.325
3880.38 133.363 138.327 130.141 130.485
3883.29 137.737 152.179 138.975 146.577
3886.21 185.438 143.032 170.614 141.189
3889.12 105.921 135.348 113.977 135.979
3892.04 114.684 115.67 123.345 116.741
3894.95 126.405 129.699 112.899 125.785
3897.87 148.008 131.411 141.109 120.526
3900.78 119.819 142.024 107.571 131.039
3903.7 158.244 145.968 144.439 133.753
3906.61 159.842 180.648 149.251 168.37
3909.53 223.86 183.956 211.421 177.084
3912.44 168.166 214.37 170.582 207.124
3915.36 251.084 215.787 239.37 210.093
3918.27 228.111 230.613 220.328 219.717
3921.19 212.644 212.918 199.453 206.953
3924.1 198 190.877 201.077 184.51
3927.02 161.986 179.286 153 177.482
3929.93 177.871 169.53 178.368 165.967
3932.85 168.733 169.214 166.532 163.968
3935.76 161.038 167.217 147.005 161.666
3938.68 171.88 157.607 171.461 152.709
3941.59 139.902 160.913 139.663 153.552
3944.51 170.957 165.57 149.533 157.463
3947.42 185.849 188.363 183.192 179.804
3950.33 208.284 204.988 206.685 204.845
3953.25 220.832 201.013 224.659 198.785
3956.16 173.925 190.325 165.012 190.897
3959.08 176.219 183.562 183.019 183.477
3961.99 200.541 192.05 202.4 184.713
3964.91 199.389 190.033 168.719 184.758
3967.82 170.17 197.072 183.156 188.839
3970.74 221.657 190.1 214.64 197.69
3973.65 178.473 199.891 195.275 203.818
3976.56 199.542 192.383 201.538 201.513
3979.48 199.134 190.827 207.725 193.488
3982.39 173.804 184.127 171.2 182.389
3985.31 179.442 167.911 168.241 162.693
3988.22 150.487 166.914 148.639 159.624
3991.14 170.812 169.215 161.992 165.94
3994.05 186.346 185.496 187.189 181.37
3996.96 199.329 192.262 194.929 186.811
3999.88 191.112 194.129 178.315 188.098
4002.79 191.948 203.688 191.049 189.803
4005.71 228.004 204.461 200.046 192.283
4008.62 193.431 222.859 185.754 206.99
4011.53 247.141 222.881 235.169 220.496
4014.45 228.072 228.098 240.564 222.109
4017.36 209.082 215.385 190.593 211.065
4020.28 209.002 213.034 202.037 198.034
4023.19 221.019 195.022 201.472 186.196
4026.1 155.046 178.942 155.077 174.894
4029.02 160.761 176.43 168.132 167.504
4031.93 213.484 181.987 179.302 181.537
4034.85 171.718 208.918 197.176 209.677
4037.76 241.552 207.612 252.554 216.251
4040.67 209.567 243.92 199.025 240.422
4043.59 280.639 243.98 269.686 233.527
4046.5 241.734 260.858 231.87 252.607
4049.41 260.201 257.513 256.265 254.765
4052.33 270.604 283.182 276.16 281.215
4055.24 318.74 291.071 311.219 281.784
4058.16 283.869 291.398 257.972 284.116
4061.07 271.585 278.863 283.157 269.524
4063.98 281.134 276.825 267.442 277.94
4066.9 277.757 282.35 283.219 277.896
4069.81 288.158 293.165 283.027 287.921
4072.72 313.58 308.785 297.518 305.546
4075.64 324.618 312.181 336.093 308.344
4078.55 298.346 318.185 291.42 319.127
4081.46 331.591 320.679 329.868 318.569
4084.38 332.099 337.651 334.418 339.691
4087.29 349.263 339.638 354.786 332.672
4090.2 337.551 340.276 308.811 325.898
4093.12 334.016 335.733 314.097 317.262
4096.03 335.633 336.589 328.879 325.932
4098.94 340.117 320.281 334.819 314.017
4101.86 285.094 329.296 278.354 323.696
4104.77 362.678 324.29 357.916 313.888
4107.68 325.097 348.189 305.394 333.489
4110.59 356.792 348.289 337.158 332.303
4113.51 362.979 346.737 354.356 335.348
4116.42 320.44 346.573 314.53 331.883
4119.33 356.299 317.38 326.762 304.31
4122.25 275.402 324.265 271.639 316.184
4125.16 341.095 306.556 350.152 305.996
4128.07 303.173 344.645 296.197 334.621
4130.98 389.669 329.551 357.513 308.952
4133.9 295.813 348.177 273.145 335.236
4136.81 359.048 338.341 375.049 344.312
4139.72 360.16 348.816 384.742 363.341
4142.63 327.238 354.646 330.231 361.336
4145.55 376.541 354.124 369.036 346.64
4148.46 358.592 356.943 340.654 350.568
4151.37 335.697 346.324 342.015 339.327
4154.28 344.683 348.368 335.311 350.547
4157.2 364.723 343.578 374.315 337.83
4160.11 321.329 349.462 303.864 350.504
4163.02 362.335 332.536 373.333 331.559
4165.93 313.944 344.978 317.481 350.645
4168.85 358.656 342.451 361.121 346.229
4171.76 354.752 354.761 360.083 361.436
4174.67 350.875 364.282 363.104 362.635
4177.58 387.218 373.738 364.719 368.555
4180.5 383.121 384.017 377.843 374.242
4183.41 381.713 378.689 380.164 372.27
4186.32 371.233 377.053 358.803 367.637
4189.23 378.214 386.266 363.943 370.233
4192.14 409.35 388.468 387.951 381.755
4195.06 377.841 378.563 393.37 375.891
4197.97 348.499 372.42 346.35 371.57
4200.88 390.919 379.202 374.989 372.979
4203.79 398.19 396.286 397.597 399.065
4206.7 399.748 391.313 424.61 398.038
4209.61 376.001 388.025 371.908 395.656
4212.53 388.326 399.299 390.451 399.924
4215.44 433.57 406.505 437.413 401.802
4218.35 397.619 415.101 377.543 410.661
4221.26 414.115 414.678 417.028 409.351
4224.17 432.301 411.505 433.481 405.58
4227.08 388.099 406.394 366.231 395.526
4230 398.781 389.729 386.867 382.914
4232.91 382.308 401.003 395.646 398.683
4235.82 421.921 401.279 413.538 405.216
4238.73 399.607 420.295 406.464 423.215
4241.64 439.357 428.731 449.643 427.791
4244.55 447.23 434.135 427.267 431.108
4247.46 415.817 432.724 416.415 426.814
4250.38 435.125 419.08 436.759 416.769
4253.29 406.298 424.023 397.132 419.57
4256.2 430.648 413.364 424.817 407.265
4259.11 403.147 410.347 399.846 406.924
4262.02 397.248 394.682 396.108 399.168
4264.93 383.651 410.391 401.549 419.541
4267.84 450.275 412.243 460.965 420.697
4270.75 402.804 410.133 399.576 415.888
4273.66 377.321 403.104 387.124 407.876
4276.57 429.187 403.314 436.928 408.072
4279.49 403.433 404.64 400.164 403.429
4282.4 381.3 423.314 373.196 422.623
4285.31 485.21 446.345 494.508 447.945
4288.22 472.526 482.53 476.132 482.044
4291.13 489.855 462.487 475.491 465.889
4294.04 425.08 453.245 446.044 453.292
4296.95 444.801 429.272 438.339 440.822
4299.86 417.935 447.306 438.082 458.211
4302.77 479.181 448.219 498.213 463.199
4305.68 447.541 467.117 453.301 472.868
4308.59 474.631 456.12 467.089 458.466
4311.5 446.188 475.137 455.007 479.593
4314.41 504.59 473.823 516.683 479.755
4317.32 470.691 478.509 467.576 485.162
4320.23 460.247 470.707 471.226 465.114
4323.14 481.183 484.285 456.54 481.425
4326.05 511.426 480.053 516.511 473.322
4328.96 447.55 480.811 446.915 493.745
4331.87 483.456 484.643 517.807 488.695
4334.78 522.922 506.098 501.361 502.664
4337.69 511.916 499.071 488.824 484.118
4340.6 462.374 479.338 462.171 467.233
4343.51 463.724 457.686 450.704 454.78
4346.42 446.959 454.127 451.466 449.623
4349.33 451.698 456.849 446.7 453.168
4352.24 471.89 472.737 461.336 469.366
4355.15 494.622 491.376 500.062 495.096
4358.06 507.615 478.886 523.889 489.782
4360.97 434.421 462.761 445.395 476.351
4363.88 446.245 439.699 459.768 448.898
4366.79 438.431 448.852 441.53 459.323
4369.7 461.88 442.672 476.672 451.41
4372.61 427.705 448.356 436.028 453.408
4375.52 455.482 445.221 447.525 446.587
4378.43 452.475 483.145 456.208 481.97
4381.34 541.478 503.984 542.177 508.17
4384.25 517.998 515.506 526.127 523.665
4387.15 487.041 503.217 502.692 509.081
4390.06 504.612 500.933 498.425 511.918
4392.97 511.147 515.031 534.636 523.067
4395.88 529.333 518.049 536.14 521.812
4398.79 513.668 508.946 494.661 510.363
4401.7 483.837 501.325 500.289 504.447
4404.61 506.471 502.93 518.39 521.041
4407.52 518.482 528.653 544.444 537.763
4410.43 561.008 532.319 550.455 540.333
4413.34 517.469 510.264 526.099 510.953
4416.24 452.316 502.632 456.306 512.64
4419.15 538.111 511.291 555.516 523.771
4422.06 543.447 557.215 559.492 575.514
4424.97 590.087 564.454 611.535 573.778
4427.88 559.827 572.771 550.307 574.039
4430.79 568.399 566.017 560.276 571.478
4433.7 569.826 557.988 603.852 568.675
4436.6 535.738 571.075 541.898 586.184
4439.51 607.66 580.016 612.802 579.96
4442.42 596.649 592.683 585.181 590.513
4445.33 573.74 562.044 573.557 554.698
4448.24 515.742 528.253 505.356 529.694
4451.14 495.277 522.812 510.169 525.825
4454.05 557.418 548.507 561.95 559.795
4456.96 592.827 574.302 607.268 581.77
4459.87 572.66 577.334 576.093 589.592
4462.78 566.515 591.595 585.415 596.4
4465.68 635.61 563.205 627.692 564.927
4468.59 487.491 567.783 481.674 562.785
4471.5 580.249 543.038 578.99 540.986
4474.41 561.375 590.356 562.294 592.473
4477.32 629.444 596.739 636.134 607.382
4480.22 599.399 622.759 623.718 638.408
4483.13 639.434 599.746 655.371 614.847
4486.04 560.405 595.419 565.453 608.115
4488.95 586.418 571.134 603.521 585.68
4491.85 566.58 590.114 588.067 600.142
4494.76 617.343 581.982 608.836 583.7
4497.67 562.022 610.345 554.196 607.613
4500.58 651.671 592.931 659.806 596.279
4503.48 565.099 631.062 574.835 643.098
4506.39 676.415 603.872 694.653 623.495
4509.3 570.1 618.462 600.999 648.738
4512.2 608.872 616.461 650.563 644.836
4515.11 670.411 640.032 682.947 666.935
4518.02 640.814 664.331 667.295 685.563
4520.92 681.768 648.395 706.448 670.225
4523.83 622.604 650.973 636.932 676.537
4526.74 648.547 616.352 686.231 633.215
4529.65 577.906 634.391 576.481 645.755
4532.55 676.72 645.238 674.554 653.755
4535.46 681.089 677.811 710.231 690.402
4538.37 675.624 650.534 686.421 667.77
4541.27 594.889 636.38 606.657 649.68
4544.18 638.627 614.729 655.961 628.388
4547.08 610.672 630.964 622.546 646.396
4549.99 643.593 645.684 660.68 659.518
4552.9 682.789 660.803 695.327 675.16
4555.8 656.028 671.069 669.474 690.061
4558.71 674.391 682.053 705.383 694.472
4561.62 715.739 697.703 708.558 709.717
4564.52 702.977 672.23 715.212 681.076
4567.43 597.973 659.577 619.459 668.268
4570.33 677.779 660.792 670.134 669.353
4573.24 706.622 693.776 718.467 700.015
4576.15 696.927 703.71 711.442 725.152
4579.05 707.58 718.532 745.546 744.991
4581.96 751.09 670.611 777.984 712.209
4584.86 553.164 664.038 613.095 708.666
4587.77 687.861 626.824 734.919 666.383
4590.67 639.446 653.201 651.136 682.09
4593.58 632.295 634.965 660.214 650.389
4596.49 633.153 646.611 639.817 665.053
4599.39 674.386 663.995 695.128 676.893
4602.3 684.445 655.625 695.733 661.45
4605.2 608.045 660.646 593.488 664.297
4608.11 689.447 637.382 703.671 646.965
4611.01 614.653 655.893 643.737 677.502
4613.92 663.579 651.088 685.097 669.16
4616.82 675.031 670.073 678.645 686.886
4619.73 671.607 656.366 696.916 677.335
4622.63 622.459 639.556 656.443 665.592
4625.54 624.602 634.917 643.417 656.63
4628.44 657.69 650.295 670.029 650.26
4631.35 668.592 641.857 637.335 642.055
4634.25 599.29 640.957 618.8 645.546
4637.16 654.989 656.807 680.504 664.642
4640.06 716.143 700.658 694.621 711.129
4642.97 730.841 706.823 758.261 718.25
4645.87 673.485 704.354 701.869 724.607
4648.77 708.737 664.659 713.691 688.764
4651.68 611.755 672.169 650.73 689.855
4654.58 696.016 650.905 705.143 677.803
4657.49 644.944 662.42 677.537 677.256
4660.39 646.3 644.284 649.089 667.515
4663.3 641.609 647.904 675.918 655.37
4666.2 655.804 648.689 641.103 663.712
4669.1 648.653 640.076 674.116 644.615
4672.01 615.771 663.908 618.625 673.863
4674.91 727.3 671.76 728.848 678.015
4677.82 672.208 686.919 686.572 694.754
4680.72 661.251 701.09 668.84 718.281
4683.62 769.811 707.668 799.432 739.988
4686.53 691.943 729.87 751.691 759.014
4689.43 727.855 695.005 725.918 721.652
4692.33 665.217 703.263 687.348 710.734
4695.24 716.717 682.026 718.936 694.947
4698.14 664.143 724.718 678.556 744.209
4701.04 793.294 751.013 835.135 781.894
4703.95 795.601 762.469 831.99 799.06
4706.85 698.51 750.427 730.056 782.587
4709.75 757.169 739.191 785.714 765.369
4712.66 761.892 729.648 780.337 759.458
4715.56 669.883 704.819 712.323 745.153
4718.46 682.683 691.62 742.799 737.092
4721.37 722.295 721.15 756.153 769.629
4724.27 758.474 732.662 809.934 768.265
4727.17 717.218 715.412 738.708 752.859
4730.08 670.545 665.911 709.935 705.009
4732.98 609.969 648.674 666.383 693.715
4735.88 665.507 640.004 704.828 694.107
4738.78 644.536 686.555 711.11 741.299
4741.69 749.622 707.872 807.96 757.63
4744.59 729.457 727.002 753.821 768.278
4747.49 701.927 722.383 743.054 761.412
4750.39 735.764 702.475 787.362 744.76
4753.29 669.733 688.224 703.863 732.655
4756.2 659.176 683.796 706.74 731.584
4759.1 722.48 701.105 784.148 756.275
4762 721.659 718.299 777.939 765.41
4764.9 710.758 709.605 734.143 753.82
4767.81 696.397 697.608 749.377 728.603
4770.71 685.67 712.767 702.287 753.087
4773.61 756.235 712.828 807.598 747.744
4776.51 696.579 731.259 733.347 774.839
4779.41 740.965 705.426 783.573 752.862
4782.31 678.734 701.162 741.666 757.275
4785.22 683.789 706.862 746.587 763.42
4788.12 758.064 737.105 802.009 796.047
4791.02 769.463 759.103 839.545 815.963
4793.92 749.781 724.044 806.334 785.131
4796.82 652.889 717.759 709.515 776.493
4799.72 750.607 709.285 813.629 767.859
4802.62 724.36 757.495 780.434 821.771
4805.52 797.517 760.619 871.249 824.336
4808.43 759.98 775.479 821.324 836.794
4811.33 768.941 749.202 817.808 809.865
4814.23 718.685 749.341 790.461 812.344
4817.13 760.396 751.726 828.762 815.138
4820.03 776.098 756.105 826.192 817.705
4822.93 731.822 757.014 798.162 811.121
4825.83 763.124 770.958 809.009 831.274
4828.73 817.93 789.997 886.651 845.18
4831.63 788.937 788.173 839.88 847.118
4834.53 757.652 761.473 814.823 811.032
4837.43 737.831 774.24 778.392 819.15
4840.33 827.236 775.784 864.234 826.178
4843.23 762.285 792.405 835.907 854.447
4846.13 787.693 766.694 863.201 838.833
4849.03 750.105 775.37 817.393 842.325
4851.93 788.312 772.217 846.382 830.922
4854.83 778.232 803.367 828.99 859.569
4857.73 843.558 782.216 903.334 844.82
4860.63 724.857 774.657 802.136 841.094
4863.53 755.556 767.845 817.813 837.162
4866.43 823.121 777.333 891.538 842.659
4869.33 753.322 782.905 818.626 837.433
4872.23 772.271 754.363 802.134 812.342
4875.13 737.495 765.778 816.267 825.372
4878.03 787.57 752.495 857.715 830.956
4880.93 732.42 774.554 818.885 845.771
4883.83 803.673 783.466 860.712 852.569
4886.73 814.305 816.078 878.109 882.454
4889.63 830.255 836.269 908.541 908.413
4892.53 864.247 810.68 938.589 889.256
4895.42 737.538 829.93 820.638 912.218
4898.32 888.005 819.21 977.426 902.63
4901.22 832.087 868.056 909.826 954.926
4904.12 884.074 838.131 977.526 915.025
4907.02 798.232 837.863 857.722 908.349
4909.92 831.284 813.408 889.799 880.821
4912.82 810.708 819.551 894.942 892.378
4915.72 816.66 842.235 892.393 926.855
4918.61 899.337 830.363 993.229 908.514
4921.51 775.093 808.807 839.919 887.872
4924.41 751.991 774.326 830.467 841.343
4927.31 795.893 778.263 853.645 846.945
4930.21 786.903 806.382 856.724 880.886
4933.1 836.349 813.094 932.289 889.975
4936 816.029 810.162 880.911 878.761
4938.9 778.108 797.109 823.081 858.234
4941.8 797.19 775.833 870.709 839.663
4944.7 752.203 778.066 825.198 852.043
4947.59 784.807 778.901 860.221 853.65
4950.49 799.692 795.138 875.53 868.438
4953.39 800.915 803.823 869.562 875.096
4956.29 810.862 780.857 880.196 847.818
4959.18 730.792 769.952 793.696 830.432
4962.08 768.201 776.036 817.405 840.495
4964.98 829.115 821.262 910.383 886.436
4967.88 866.471 863.827 931.519 942.67
4970.77 895.894 855.173 986.109 936.108
4973.67 803.154 848.275 890.698 932.944
