wavelength spectrum_sum 3smoothed_sum spectrum_optimal 3smoothed_optimal spectrum_snr
3506.69 1800.41 1454.13 1365.55 1126.35 45.272
3509.61 2561.99 2478.45 2013.5 1962.41 54.0171
3512.52 3072.96 2978.04 2508.17 2396.19 59.1486
3515.44 3299.17 3281.35 2666.9 2641.51 61.3099
3518.36 3471.93 3326.61 2749.47 2652.47 62.88
3521.27 3208.73 3342.61 2541.03 2672 60.4457
3524.19 3347.18 3333.31 2725.51 2690.84 61.7436
3527.11 3444.03 3379.49 2805.98 2725.94 62.6767
3530.02 3347.27 3404.25 2646.34 2744.71 61.7531
3532.94 3421.45 3416.8 2781.81 2739.13 62.4061
3535.86 3481.68 3502.49 2789.25 2817.46 63.0309
3538.78 3604.34 3575.56 2881.32 2873.18 64.0011
3541.69 3640.66 3749.05 2948.97 3034.74 64.382
3544.61 4002.16 3896.35 3273.94 3151.29 67.5887
3547.53 4046.24 3988.46 3230.95 3244.1 67.8746
3550.44 3916.99 4028.52 3227.42 3261.67 66.8513
3553.36 4122.33 4023.14 3326.65 3274.9 68.5255
3556.28 4030.1 4060.23 3270.63 3277.53 67.7761
3559.19 4028.27 4061.53 3235.3 3263.65 67.8768
3562.11 4126.22 4025.6 3285.02 3235.76 68.553
3565.03 3922.29 4047.79 3186.97 3273.41 66.8176
3567.94 4094.86 3994.6 3348.24 3272.49 68.3849
3570.86 3966.65 4071.59 3282.27 3354.19 67.1561
3573.78 4153.26 4105.98 3432.06 3399.81 68.7906
3576.69 4198.03 4162.91 3485.11 3454.84 69.1367
3579.61 4137.44 4114.22 3447.36 3402.97 68.655
3582.53 4007.17 4065.58 3276.43 3379.68 67.5064
3585.44 4052.14 4152.8 3415.25 3469.5 67.9489
3588.36 4399.1 4265.65 3716.81 3588.3 70.8174
3591.28 4345.73 4386.61 3632.83 3675.87 70.3825
3594.19 4415 4428.65 3677.98 3701.06 70.915
3597.11 4525.22 4441.86 3792.39 3712.88 71.8543
3600.03 4385.36 4452.93 3668.26 3727.39 70.641
3602.95 4448.21 4457.51 3721.52 3751.92 71.1603
3605.86 4538.96 4555.36 3866 3865.04 71.8842
3608.78 4678.9 4631.41 4007.61 3934.53 72.9604
3611.7 4676.38 4733.8 3929.99 4026.91 72.8799
3614.61 4846.12 4890.74 4143.13 4142.8 74.22
3617.53 5149.71 5032.92 4355.29 4290.02 76.5287
3620.45 5102.95 5253.83 4371.62 4458.06 76.2128
3623.36 5508.84 5310.48 4647.26 4499.95 79.1107
3626.28 5319.65 5219.58 4480.96 4400.75 77.8276
3629.19 4830.25 5164.64 4074.02 4379.15 74.0966
3632.11 5344.01 5300.55 4582.48 4528.64 77.9372
3635.03 5727.4 5602.94 4929.43 4801.9 80.735
3637.94 5737.41 5642.33 4893.77 4840.63 80.7629
3640.86 5462.19 5736.33 4698.7 4929.08 78.8375
3643.78 6009.38 5757.47 5194.78 4982.28 82.7066
3646.69 5800.83 5925.78 5053.36 5127.32 81.2014
3649.61 5967.14 5958.9 5133.83 5156.62 82.3476
3652.53 6108.71 6034.51 5282.67 5201.4 83.4005
3655.44 6027.68 6075.38 5187.7 5241.16 82.741
3658.36 6089.76 6149.47 5253.12 5322.94 83.2268
3661.28 6330.96 6265.01 5528 5433.54 84.8841
3664.19 6374.32 6429.92 5519.51 5611.9 85.1586
3667.11 6584.47 6412.34 5788.2 5576.47 86.5287
3670.03 6278.24 6323.14 5421.7 5491.41 84.509
3672.94 6106.73 6291.83 5264.33 5425.98 83.3876
3675.86 6490.54 6252.41 5591.91 5421.51 85.9374
3678.78 6159.97 6369.82 5408.28 5509.72 83.7491
3681.69 6458.96 6376.08 5528.95 5548.91 85.7095
3684.61 6509.32 6563.76 5709.5 5695.01 86.0314
3687.52 6723 6727.74 5846.59 5864.53 87.4442
3690.44 6950.91 6760.92 6037.5 5880.43 88.9214
3693.36 6608.84 6815.59 5757.22 5941.52 86.6573
3696.27 6887.02 6825.93 6029.83 5968.35 88.5156
3699.19 6981.91 6954.41 6118.01 6060.94 89.0409
3702.11 6994.31 7115.33 6034.97 6186.43 89.1651
3705.02 7369.76 7211.15 6406.32 6250.78 91.6293
3707.94 7269.38 7415.2 6311.06 6461.4 90.9098
3710.85 7606.45 7626.11 6666.81 6653.41 93.0006
3713.77 8002.51 7627.56 6982.35 6634.02 95.4121
3716.69 7273.72 7709.71 6252.91 6710.33 90.9673
3719.6 7852.9 7678.74 6895.74 6708.52 94.4932
3722.52 7909.59 8155.48 6976.9 7201.56 94.8266
3725.44 8703.93 8348.2 7732.04 7337.51 99.4848
3728.35 8431.08 8207.77 7303.6 7214.92 97.8771
3731.27 7488.29 8004.08 6609.11 7031.4 92.2554
3734.18 8092.87 8315.62 7181.48 7370.56 95.9033
3737.1 9365.71 9033.63 8321.08 7984.88 103.251
3740.02 9642.31 9416.65 8452.08 8295.2 104.774
3742.93 9241.92 9067.04 8112.44 7939.05 102.545
3745.85 8316.88 8711.22 7252.64 7706.34 97.2821
3748.76 8574.87 8767.04 7753.94 7780.27 98.726
3751.68 9409.37 9326.73 8334.23 8292.44 103.431
3754.6 9995.97 10049 8789.14 8873.94 106.649
3757.51 10741.5 10455.6 9498.46 9164.72 110.564
3760.43 10629.2 10641.8 9206.56 9333.79 109.955
3763.34 10554.6 10219.4 9296.36 8956.66 109.616
3766.26 9474.49 9840.78 8367.05 8729.09 103.784
3769.18 9493.29 9824.95 8523.84 8769.97 103.872
3772.09 10507.1 10651.7 9419.02 9588.34 109.344
3775.01 11954.6 11849 10822.2 10623.8 116.707
3777.92 13085.4 12672 11630.2 11303.9 122.094
3780.84 12975.9 13300.6 11459.4 11759.8 121.56
3783.75 13840.6 13499.5 12189.8 11988.4 125.569
3786.67 13682 13587.1 12315.9 12089.9 124.819
3789.59 13238.5 13010.3 11763.8 11648.9 122.798
3792.5 12110.5 12095.7 10867 10833.3 117.346
3795.42 10938 11625.5 9868.98 10487.9 111.544
3798.33 11827.9 11969.2 10727.7 10803 115.957
3801.25 13141.6 13052.4 11812.3 11743.9 122.302
3804.16 14187.7 14147.7 12691.6 12654.9 127.064
3807.08 15113.8 15199.3 13460.6 13541.5 131.185
3810 16296.6 16050.5 14472.3 14247.8 136.278
3812.91 16741.2 16822.5 14810.4 14981.9 138.135
3815.83 17429.7 17258.8 15663 15428 140.975
3818.74 17605.3 17220.1 15810.4 15449.1 141.614
3821.66 16625.2 16654.9 14873.8 14942.7 137.628
3824.57 15734.1 15589.4 14143.9 13960.6 133.825
3827.49 14408.8 14386.9 12864 12867.1 128.072
3830.4 13017.7 13182.1 11593.6 11809.6 121.686
3833.32 12119.8 12546.5 10971.4 11346.6 117.381
3836.24 12502.1 12680.3 11474.9 11590.9 119.162
3839.15 13418.9 13884.2 12326.5 12690.9 123.572
3842.07 15731.5 15289.6 14271.3 13905.1 133.807
3844.98 16718.3 16643.8 15117.6 15007.9 137.977
3847.9 17481.7 17599.7 15634.8 15839 141.169
3850.81 18599.2 18623.8 16764.7 16716.3 145.597
3853.73 19790.4 19714.8 17749.4 17738 150.177
3856.64 20754.8 20669 18699.8 18634 153.775
3859.56 21461.9 21142.6 19452.8 19085.4 156.409
3862.47 21211.2 21553.7 19103.5 19436.1 155.474
3865.39 21988 21724.6 19752.2 19560.1 158.312
3868.3 21974.5 21684.7 19824.7 19488.4 158.261
3871.22 21091.5 21125.4 18888.3 19039.7 155.055
3874.13 20310.2 20335.3 18406.2 18334.9 152.115
3877.05 19604.4 19428.6 17710.2 17597 149.463
3879.96 18371.4 18129.9 16674.6 16402.4 144.687
3882.88 16413.9 16431.2 14822.4 14888.4 136.664
3885.79 14508.3 15127 13168 13803.2 128.431
3888.71 14458.7 14706.7 13419.2 13534.8 128.232
3891.62 15153.2 15489.9 14017.3 14338.1 131.274
3894.54 16857.8 16604.1 15577.8 15298.7 138.504
3897.45 17801.2 17894.1 16301 16394.1 142.331
3900.37 19023.2 18913.8 17303.6 17250.6 147.207
3903.28 19916.9 20148 18147.3 18322.1 150.605
3906.2 21504 21573.1 19515.5 19629.8 156.516
3909.11 23298.3 22795.4 21226.7 20722.4 162.936
3912.03 23583.9 23599.4 21425.2 21543.3 163.963
3914.94 23916.1 24074.1 21978 22035.7 165.095
3917.86 24722.3 24857.2 22704 22802.1 167.855
3920.77 25933.1 25667.1 23724.5 23485.2 171.931
3923.69 26345.9 25926.4 24027.1 23621.6 173.282
3926.6 25500.2 24945.9 23113.2 22692.6 170.524
3929.52 22991.6 23740.7 20937.3 21693.6 161.839
3932.43 22730.5 23396.4 21030.1 21508.3 160.896
3935.35 24467.2 24147.8 22557.4 22201.5 166.986
3938.26 25245.6 25128.9 23017 23055.3 169.616
3941.18 25673.8 25355.8 23591.5 23249 171.042
3944.09 25148.1 25280.3 23138.4 23250.6 169.28
3947 25018.9 25071 23021.8 23034.8 168.851
3949.92 25046.1 24968.9 22944 22913.8 168.962
3952.83 24841.6 24910.6 22775.5 22895.3 168.236
3955.75 24843.9 24512.4 22966.3 22525.6 168.247
3958.66 23851.6 23515.2 21834.8 21616.8 164.816
3961.58 21850 21587.3 20049.3 19748 157.764
3964.49 19060.2 19053.6 17359.7 17488.7 147.267
3967.41 16250.6 17391.6 15057 16073.9 135.877
3970.32 16864 17318 15804.9 16178.4 138.481
3973.23 18839.5 18672.4 17673.3 17462.1 146.401
3976.15 20313.9 20356.4 18908.1 18971.2 152.009
3979.06 21915.7 21846 20332.1 20278.9 157.904
3981.98 23308.3 23515.8 21596.5 21806.3 162.875
3984.89 25323.4 25090.8 23490.4 23231 169.844
3987.8 26640.8 26530.3 24606 24563.3 174.192
3990.72 27626.8 27430.3 25593.6 25378.1 177.388
3993.63 28023.5 28358.6 25934.6 26226 178.69
3996.55 29425.6 29190.7 27149.6 26993.1 183.126
3999.46 30122.9 30190 27895 27952.1 185.279
4002.37 31021.4 30902.6 28811.5 28717.3 188.027
4005.29 31563.5 31769.3 29445.5 29567.6 189.668
4008.2 32722.9 32524.8 30445.9 30251 193.122
4011.12 33288 33434.7 30861.6 31083.8 194.799
4014.03 34293.2 34163.4 31943.9 31743.4 197.754
4016.94 34909.1 34479.1 32424.6 32015.7 199.505
4019.86 34234.9 34659.8 31678.5 32156.6 197.601
4022.77 34835.6 34994.8 32366.5 32478.3 199.284
4025.69 35914.1 35065.4 33389.8 32602.2 202.373
4028.6 34446.6 34910.8 32050.3 32527.6 198.148
4031.51 34371.7 34840.6 32142.7 32533.5 197.912
4034.43 35703.3 35399 33407.4 33104.1 201.758
4037.34 36122 35710.1 33762.1 33349.5 202.896
4040.25 35305.1 35478.1 32879 33121.2 200.574
4043.17 35007.2 35313.2 32722.4 33004.8 199.751
4046.08 35627.2 35442.9 33413.1 33193.3 201.508
4048.99 35694.4 35562.7 33444.4 33302.5 201.732
4051.91 35366.3 35675.6 33050.2 33394.5 200.737
4054.82 35966 35805.2 33688.9 33519.4 202.511
4057.74 36083.4 35782.2 33819 33534 202.821
4060.65 35297.1 35688.4 33094 33466.1 200.573
4063.56 35684.6 35417.6 33485.3 33247.3 201.692
4066.48 35271.2 35253.3 33162.5 33062.3 200.475
4069.39 34804 34516.5 32539 32333.6 199.157
4072.3 33474.3 33259.8 31299.3 31113.4 195.346
4075.22 31501.2 32146.6 29501.9 30173.9 189.432
4078.13 31464.3 31588 29720.5 29689.5 189.334
4081.04 31798.6 31691.6 29846.1 29865.4 190.318
4083.95 31812 31908.9 30029.6 30046.4 190.359
4086.87 32116.2 31932.2 30263.5 30107.5 191.253
4089.78 31868.4 31399.3 30029.3 29492.1 190.51
4092.69 30213.3 29702.4 28183.6 27812.5 185.453
4095.61 27025.4 27046 25224.7 25238.8 175.338
4098.52 23899.2 24688.3 22308 23163.4 164.868
4101.43 23140.3 23717.3 21957.4 22429.7 162.192
4104.35 24112.3 24417.6 23023.8 23273.2 165.611
4107.26 26000.4 26020.4 24838.5 24861.1 171.969
4110.17 27948.6 27936.3 26721.2 26680.3 178.299
4113.08 29860 29438.6 28481.1 27994.7 184.354
4116 30507.1 30779.3 28782 29171.2 186.361
4118.91 31970.8 31686.6 30250.4 29987.3 190.808
4121.82 32582 32734 30929.6 30985.3 192.619
4124.73 33649.2 33304.1 31775.8 31545 195.751
4127.65 33681.3 33932.2 31929.5 32173.8 195.869
4130.56 34466.3 34729.2 32816.2 33025.5 198.126
4133.47 36040.1 36187.4 34330.7 34476.7 202.568
4136.39 38055.6 37641.6 36283.3 35815.1 208.233
4139.3 38829.1 38349.8 36831.4 36433.8 210.336
4142.21 38164.8 38763.2 36186.7 36856.9 208.516
4145.12 39295.8 39199.7 37552.4 37289.6 211.591
4148.04 40138.5 39625.1 38129.6 37692.1 213.887
4150.95 39441.1 39829.4 37394.4 37839.2 211.969
4153.86 39908.6 40152.7 37993.5 38255.6 213.244
4156.77 41108.4 40738.1 39378.9 38904 216.422
4159.68 41197.4 41422.9 39339.7 39604.8 216.673
4162.6 41962.8 41838.8 40095.7 39969.3 218.656
4165.51 42356 42137.3 40472.5 40232.6 219.723
4168.42 42092.9 41865.2 40129.8 39960.4 219.033
4171.33 41146.7 41446.5 39278.9 39517.1 216.52
4174.25 41099.9 41067.6 39142.5 39194.3 216.424
4177.16 40956.4 41302.7 39161.4 39464.8 216.012
4180.07 41851.8 41474.7 40090.6 39658.7 218.399
4182.98 41615.9 41821 39724.1 40057.1 217.785
4185.89 41995.4 42073.9 40356.6 40351.3 218.773
4188.8 42610.5 42360.2 40973.2 40668.1 220.359
4191.72 42474.7 42410.9 40674.4 40658.5 219.983
4194.63 42147.4 42154 40327.9 40319.4 219.105
4197.54 41839.7 41868 39955.9 40037.9 218.381
4200.45 41616.9 42044.8 39829.8 40232 217.775
4203.36 42677.8 42743 40910.3 41085.3 220.51
4206.28 43934.3 43873.2 42515.9 42236.3 223.771
4209.19 45007.3 44516.1 43282.9 42874.5 226.481
4212.1 44606.6 44728.6 42824.7 42951.3 225.431
4215.01 44571.9 44837.6 42746.2 43081.4 225.358
4217.92 45334.4 45095.9 43673.2 43279.4 227.336
4220.83 45381.2 44830.5 43418.9 43044.8 227.375
4223.74 43775.8 44596.7 42042.2 42840.9 223.33
4226.66 44633 44741 43061.6 43085.9 225.535
4229.57 45814.2 45182.3 44154 43513.8 228.488
4232.48 45099.7 45160.9 43325.7 43472.6 226.723
4235.39 44569 44881.9 42938.2 43252.1 225.335
4238.3 44976.9 45141 43492.4 43559.4 226.386
4241.21 45877.1 45634.4 44247.6 44028.7 228.638
4244.12 46049.3 45949 44345.9 44328.1 229.076
4247.03 45920.6 46195.3 44390.7 44638 228.768
4249.95 46616.2 46497.8 45177.3 44968.2 230.526
4252.86 46956.5 47057 45336.7 45486.5 231.351
4255.77 47598.2 47242.4 45945.5 45638.8 232.917
4258.68 47172.4 47785.9 45634.2 46244.7 231.898
4261.59 48587 48494.9 47154.2 47044.4 235.31
4264.5 49725.3 48965.3 48344.9 47485.6 238.085
4267.41 48583.7 48580.1 46957.7 47086.4 235.318
4270.32 47431.4 48033.8 45956.5 46569.2 232.481
4273.23 48086.3 48306.1 46793.3 46941.8 234.097
4276.14 49400.7 48950 48075.7 47607.1 237.292
4279.05 49363 49388.9 47952.4 47967.6 237.176
4281.96 49403 49282.8 47874.6 47848.5 237.283
4284.88 49082.6 49134.9 47718.5 47673.3 236.527
4287.79 48919.2 48911.6 47426.8 47463.9 236.154
4290.7 48733.1 48766.6 47246.3 47323.3 235.711
4293.61 48647.4 48210.4 47296.8 46757.5 235.5
4296.52 47250.8 47173.3 45729.5 45800.9 232.027
4299.43 45621.6 46149.7 44376.4 44831.3 228.004
4302.34 45576.6 45587.7 44388.1 44357.4 227.874
4305.25 45564.9 45755.9 44307.6 44553.8 227.854
4308.16 46126.3 46098.8 44965.8 44905.8 229.287
4311.07 46605.1 46556.4 45444 45389 230.446
4313.98 46937.9 47115.7 45757.1 45933.2 231.308
4316.89 47804.2 47426.3 46598.6 46255.4 233.402
4319.8 47536.7 47263.7 46410.7 46098.3 232.748
4322.71 46450.3 46419.2 45285.7 45268.1 230.048
4325.62 45270.6 44986.8 44107.8 43818.1 227.149
4328.53 43239.7 43270.2 42060.8 42087 221.955
4331.44 41300.2 40699.4 40092.3 39468.6 216.826
4334.35 37558.4 37247.2 36252.7 36012.8 206.723
4337.26 32883.1 33727.4 31693.4 32617 193.358
4340.17 30740.6 32019.3 29905 31204.1 186.908
4343.08 32434.1 32732.3 32013.9 32174.8 192.015
4345.99 35022.1 34711.1 34605.5 34288.7 199.567
4348.9 36677.1 36842.5 36246.6 36424.6 204.329
4351.81 38828.3 39094.9 38421.7 38659 210.213
4354.72 41779.1 41326.1 41308.6 40872.8 218.099
4357.63 43371 43524 42887.9 43016 222.255
4360.54 45421.8 45355.1 44851.4 44768.2 227.466
4363.45 47272.5 47219.4 46565.4 46525.2 232.058
4366.35 48963.9 48730.8 48159 47963.7 236.223
4369.26 49956 49849 49166.9 49034.7 238.641
4372.17 50627.1 50664.2 49778.3 49861.6 240.193
4375.08 51409.5 51663 50639.6 50864.8 242.033
4377.99 52952.5 52173.2 52176.5 51345.3 245.679
4380.9 52157.5 52056.1 51219.7 51202.9 243.831
4383.81 51058.1 51808.3 50212.5 50955 241.223
4386.72 52209.1 51761.5 51432.8 50929.5 243.92
4389.63 52017.1 52370.3 51143.2 51548.4 243.533
4392.54 52884.6 52599.4 52069.3 51840.1 245.525
4395.45 52896.4 52881 52308 52151.3 245.486
4398.35 52861.9 53229.9 52076.5 52537.2 245.465
4401.26 53931.3 53623.1 53227.2 52883.7 247.957
4404.17 54076.1 54043.1 53347.3 53322.1 248.254
4407.08 54121.9 54228.9 53391.8 53555.2 248.361
4409.99 54488.7 54241.9 53926.6 53604.5 249.234
4412.9 54115.2 54291.2 53495.1 53707.3 248.326
4415.81 54269.6 54210.9 53700.1 53633.2 248.69
4418.72 54248.1 54678.3 53704.2 54105.4 248.633
4421.62 55517.3 55072.2 54912 54491.9 251.53
4424.53 55451.3 55172.1 54859.4 54551.1 251.398
4427.44 54547.7 54883.7 53882.1 54296.5 249.333
4430.35 54652.1 54698.5 54148.2 54177.2 249.572
4433.26 54895.6 55226.9 54501.5 54828.8 250.141
4436.17 56133.1 55908.8 55836.6 55471.9 252.968
4439.07 56697.6 55985.1 56077.5 55469.2 254.238
4441.98 55124.6 55553.4 54493.5 54993.2 250.623
4444.89 54837.9 54959.1 54408.5 54467.2 249.992
4447.8 54914.8 54812.9 54499.6 54384.2 250.176
4450.71 54685.8 54923.7 54244.6 54471.1 249.643
4453.61 55170.5 54980.3 54669.3 54539 250.739
4456.52 55084.6 55019.3 54703 54580.6 250.573
4459.43 54802.8 54498.3 54369.4 54076.9 249.93
4462.34 53607.6 53986.2 53158.3 53563 247.152
4465.25 53548.3 53468.5 53161.3 53124.6 247.006
4468.15 53249.6 53892 53054.1 53640.2 246.333
4471.06 54878.2 54876.9 54705.2 54725.3 250.099
4473.97 56503.1 55893.6 56416.7 55731 253.801
4476.88 56299.6 55960.5 56071.2 55792.9 253.362
4479.78 55078.8 55605.4 54890.8 55444.3 250.568
4482.69 55437.9 55704.9 55370.8 55583.7 251.345
4485.6 56598 56161.5 56489.5 56079.1 254.007
4488.51 56448.7 56665.6 56376.8 56630.6 253.632
4491.41 56949.9 56963 57025.6 56956.8 254.741
4494.32 57490.2 57483 57468.1 57478.1 255.984
4497.23 58009 57975.9 57940.6 57982.2 257.158
4500.13 58428.6 58876.3 58537.9 58889.6 258.069
4503.04 60191.3 59466.5 60190.3 59495.3 261.987
4505.95 59779.6 60115.3 59757.8 60078.9 261.104
4508.86 60375 60263.4 60288.6 60229.8 262.332
4511.76 60635.6 60356.9 60642.9 60317 262.905
4514.67 60060.1 59859.2 60019.4 59793.6 261.657
4517.58 58881.8 58865.3 58718.4 58814.4 259.079
4520.48 57653.9 57740.9 57705.3 57731.2 256.336
4523.39 56686.8 56957.6 56769.8 57037.6 254.136
4526.3 56532.2 56719.8 56637.5 56798.6 253.824
4529.2 56940.3 57122.4 56988.5 57243.5 254.716
4532.11 57894.7 57660.4 58104.4 57888.4 256.909
4535.02 58146.2 58180.2 58572.3 58437 257.446
4537.92 58499.8 58405.1 58634.3 58738.2 258.204
4540.83 58569.2 58803.7 59008 59094.8 258.363
4543.74 59342.1 58926.8 59642.1 59251.3 260.068
4546.64 58869.1 58654.9 59103.8 58965.3 258.977
4549.55 57753.6 57675 58150 57926.3 256.554
4552.45 56402.5 56753.9 56525.2 56976.2 253.544
4555.36 56105.5 56473.5 56253.5 56670.7 252.836
4558.27 56912.3 56903.6 57233.4 57153.6 254.65
4561.17 57692.9 57940.8 57973.9 58290.6 256.401
4564.08 59217.2 58972 59664.4 59409.9 259.805
4566.98 60005.9 59802.3 60591.2 60263.7 261.498
4569.89 60183.8 60180.2 60535.6 60690.1 261.9
4572.8 60350.8 60546 60943.4 61100.8 262.248
4575.7 61103.3 60694.2 61823.4 61324.3 263.9
4578.61 60628.3 60768.4 61206 61393.4 262.875
4581.51 60573.4 60596.5 61150.8 61202.1 262.757
4584.42 60587.8 60626.8 61249.4 61234.3 262.794
4587.32 60719 60683.9 61302.8 61296.6 263.041
4590.23 60744.8 60562.1 61337.5 61162.1 263.098
4593.14 60222.6 60739.4 60846 61356.5 261.946
4596.04 61251 61123.6 61886.1 61772.9 264.193
4598.95 61897.1 61606.5 62586.6 62276 265.596
4601.85 61671.3 61782.7 62355.3 62527.5 265.112
4604.76 61779.6 61972.4 62640.6 62774.6 265.341
4607.66 62466.2 62358.5 63327.9 63278.7 266.863
4610.57 62829.6 62867.6 63867.7 63815.2 267.578
4613.47 63307 62805.8 64250.1 63778.9 268.648
4616.38 62280.8 62691.9 63218.8 63597.5 266.427
4619.28 62487.8 62784.6 63323.4 63715.5 266.861
4622.19 63585.1 63219.6 64604.3 64170.8 269.201
4625.09 63585.9 63343.9 64584.8 64335.4 269.206
4628 62860.8 63503 63817.2 64490 267.684
4630.9 64062.2 61460.4 65068 64281.9 270.199
4633.81 57458.3 59765.4 63960.6 64497.9 255.837
4636.71 57775.8 57743.2 64465 64395.2 256.523
4639.61 57995.6 58083.5 64760.1 64869 257.077
4642.52 58479 58196.8 65381.8 65023.5 258.121
4645.42 58115.9 58097.4 64928.5 64927.4 257.321
4648.33 57697.4 58188 64472 65006.2 256.363
4651.23 58750.8 58106.8 65618.3 64910.2 258.75
4654.14 57872.3 58399.3 64640.3 65253.4 256.83
4657.04 58574.8 58421.6 65501.7 65272.3 258.291
4659.94 58817.6 58618.3 65674.8 65472 258.882
4662.85 58462.5 58136.9 65239.4 64919.4 258.093
4665.75 57130.6 57349.6 63844 64105.7 255.096
4668.66 56455.8 57099.8 63233.8 63873.2 253.598
4671.56 57713 57582.1 64541.8 64432.6 256.417
4674.46 58577.4 58351.1 65522.1 65259.7 258.349
4677.37 58762.8 58586.1 65715.3 65525.8 258.773
4680.27 58418.1 58597.6 65340 65564.4 257.986
4683.18 58611.8 58762.7 65637.8 65764.1 258.407
4686.08 59258.1 59022.9 66314.5 66055.6 259.872
4688.98 59198.8 59218.5 66214.4 66261.4 259.681
4691.89 59198.5 59413.5 66255.4 66516.9 259.716
4694.79 59843.1 59594.1 67081 66779 261.141
4697.69 59740.6 59455.2 67000.6 66618.7 260.883
4700.6 58781.9 58828.1 65774.5 65939.9 258.789
4703.5 57961.8 58400.9 65044.6 65464.6 256.948
4706.4 58458.9 58406.7 65574.7 65541.7 258.057
4709.31 58799.6 58621.1 66005.9 65759.4 258.831
4712.21 58604.7 58677.9 65697.6 65798.5 258.416
4715.11 58629.4 58924.5 65691.9 66068.2 258.44
4718.01 59539.4 59353.9 66815.2 66581.8 260.497
4720.92 59892.9 59723.5 67238.4 67038.4 261.238
4723.82 59738.2 59544.2 67061.6 66863.2 260.878
4726.72 59001.6 59214.9 66289.8 66511.9 259.274
4729.63 58904.7 59130.8 66184.5 66418.6 259.029
4732.53 59486 59006.8 66781.5 66257.7 260.323
4735.43 58629.7 59108.8 65807.2 66349 258.427
