wavelength spec_sum spec_optimal
3527.11 1568.61 1595
3530.02 1497.44 1476.8
3532.94 1505.66 1525.94
3535.86 1509.27 1505.67
3538.78 1540.99 1532.16
3541.69 1536.88 1546.17
3544.61 1669.67 1693.75
3547.53 1669.64 1650.39
3550.44 1599.85 1628.74
3553.36 1667.49 1659.31
3556.28 1615.26 1613.01
3559.19 1600.39 1578.14
3562.11 1625.35 1585.13
3565.03 1532.14 1521.44
3567.94 1586.4 1581.53
3570.86 1524.05 1533.87
3573.78 1582.43 1586.65
3576.69 1585.91 1593.66
3579.61 1549.31 1558.85
3582.53 1486.86 1464.62
3585.44 1489.32 1508.79
3588.36 1600.89 1622.19
3591.28 1565.33 1565.97
3594.19 1573.63 1565.54
3597.11 1595.53 1593.59
3600.03 1529.17 1521.44
3602.95 1533.67 1523.29
3605.86 1547.17 1561.57
3608.78 1576.43 1597.21
3611.7 1557.18 1545.33
3614.61 1594.75 1607.37
3617.53 1674.57 1667
3620.45 1639.62 1650.81
3623.36 1749 1731.5
3626.28 1668.79 1647.3
3629.19 1497.28 1477.92
3632.11 1636.87 1640.5
3635.03 1733.58 1741.69
3637.94 1716.3 1706.82
3640.86 1614.94 1617.85
3643.78 1756.23 1766.08
3646.69 1676.01 1696.68
3649.61 1704.64 1702.55
3652.53 1725.69 1730.77
3655.44 1684.22 1679.56
3658.36 1683.25 1680.93
3661.28 1731.38 1748.65
3664.19 1725.11 1726.4
3667.11 1763.66 1790.4
3670.03 1664.59 1658.76
3672.94 1602.98 1593.38
3675.86 1686.9 1674.6
3678.78 1585.36 1602.67
3681.69 1646.32 1621.56
3684.61 1643.32 1657.41
3687.52 1681.28 1680.11
3690.44 1722 1717.6
3693.36 1622.07 1621.62
3696.27 1674.84 1681.74
3699.19 1682.41 1689.67
3702.11 1670.1 1650.56
3705.02 1743.95 1735.28
3707.94 1704.77 1693.07
3710.85 1767.97 1771.48
3713.77 1843.52 1837.66
3716.69 1660.82 1630.07
3719.6 1777.32 1780.69
3722.52 1774.43 1784.63
3725.44 1935.52 1959.12
3728.35 1858.51 1833.18
3731.27 1636.27 1643.22
3734.18 1753 1768.75
3737.1 2011.02 2030.09
3740.02 2052.36 2042.58
3742.93 1950.04 1942.03
3745.85 1739.54 1719.77
3748.76 1777.88 1821.27
3751.68 1933.83 1938.99
3754.6 2036.37 2025.37
3757.51 2169.08 2168.03
3760.43 2127.49 2081.32
3763.34 2093.95 2081.55
3766.26 1862.99 1855.47
3769.18 1850.08 1872.03
3772.09 2029.43 2048.71
3775.01 2288.3 2331.09
3777.92 2482.28 2480.85
3780.84 2439.24 2420.56
3783.75 2578.22 2549.71
3786.67 2525.4 2550.77
3789.59 2421.1 2412.38
3792.5 2194.44 2206.48
3795.42 1963.6 1983.92
3798.33 2103.61 2135.09
3801.25 2315.33 2327.4
3804.16 2476.14 2475.58
3807.08 2612.78 2599.09
3810 2790.48 2766.21
3812.91 2839.42 2802.32
3815.83 2928.05 2933.7
3818.74 2929.51 2931.55
3821.66 2740.16 2730.16
3824.57 2568.83 2570.26
3827.49 2330.28 2314.36
3830.4 2085.64 2065.2
3833.32 1923.69 1935.11
3836.24 1966.02 2004.13
3839.15 2090.91 2132.06
3842.07 2428.98 2444.73
3844.98 2558.22 2565.17
3847.9 2651.25 2627.97
3850.81 2796.05 2791.78
3853.73 2949.35 2928.63
3856.64 3066.75 3057.6
3859.56 3144.56 3152.33
3862.47 3082.2 3068.61
3865.39 3169.1 3145.36
3868.3 3141.96 3130.15
3871.22 2992.11 2957.39
3874.13 2859.26 2858.37
3877.05 2739.2 2728.19
3879.96 2548.14 2548.49
3882.88 2260.26 2247.88
3885.79 1983.82 1981.87
3888.71 1963.38 2004.61
3891.62 2043.78 2078.66
3894.54 2258.55 2293.41
3897.45 2369.4 2382.91
3900.37 2515.77 2511.79
3903.28 2617.36 2616.18
3906.2 2808.32 2794.33
3909.11 3024.04 3019.06
3912.03 3042.6 3027.15
3914.94 3067.1 3085.05
3917.86 3151.81 3166.39
3920.77 3286.98 3287.67
3923.69 3320.07 3308.57
3926.6 3195.25 3162.89
3929.52 2864.66 2847.37
3932.43 2816.34 2842.48
3935.35 3014.7 3030.33
3938.26 3093.53 3073.42
3941.18 3128.79 3131.2
3944.09 3048.11 3052.77
3947 3016.09 3019.4
3949.92 3003.09 2991.39
3952.83 2962.64 2951.99
3955.75 2947.06 2959.26
3958.66 2814.32 2797.08
3961.58 2564.45 2553.39
3964.49 2225.21 2198.06
3967.41 1887.17 1895.46
3970.32 1948.11 1978.16
3973.23 2164.9 2199.3
3976.15 2322.06 2339.42
3979.06 2492.05 2501.2
3981.98 2636.52 2641.5
3984.89 2849.5 2856.73
3987.8 2982.11 2975.31
3990.72 3076.3 3077.01
3993.63 3104.2 3100.21
3996.55 3242.46 3226.86
3999.46 3301.98 3296.52
4002.37 3382.73 3385.36
4005.29 3423.8 3440
4008.2 3531.01 3536.5
4011.12 3573.12 3564.15
4014.03 3661.72 3667.95
4016.94 3707.92 3701.72
4019.86 3617.11 3595.61
4022.77 3661.18 3652.47
4025.69 3754.55 3746.06
4028.6 3582.14 3574.97
4031.51 3555.52 3564.54
4034.43 3673.78 3683.32
4037.34 3697.39 3700.99
4040.25 3594.91 3583.51
4043.17 3546 3546
4046.08 3590.17 3600.28
4048.99 3578.5 3583.31
4051.91 3527.51 3521.17
4054.82 3569.24 3569.26
4057.74 3562.95 3563.25
4060.65 3468.1 3467.85
4063.56 3489.06 3489.93
4066.48 3431.97 3437.8
4069.39 3370.42 3355.42
4072.3 3226.48 3210.84
4075.22 3022.26 3010.93
4078.13 3005.05 3017.97
4081.04 3023.48 3015.73
4083.95 3011.56 3019.53
4086.87 3027.33 3028.49
4089.78 2991.43 2991.02
4092.69 2824.49 2794.34
4095.61 2516.38 2489.75
4098.52 2216.63 2192.22
4101.43 2138.04 2148.48
4104.35 2219.46 2243.24
4107.26 2384.39 2409.91
4110.17 2553.65 2581.82
4113.08 2718.37 2740.53
4116 2767.19 2758.08
4118.91 2889.47 2886.91
4121.82 2934.05 2939.61
4124.73 3019.12 3007.58
4127.65 3010.87 3009.53
4130.56 3069.62 3080.13
4133.47 3197.72 3208.61
4136.39 3363.62 3376.45
4139.3 3418.64 3412.45
4142.21 3346.82 3337.77
4145.12 3432.01 3447.98
4148.04 3490.98 3484.64
4150.95 3415.68 3401.17
4153.86 3441.01 3438.79
4156.77 3528.46 3546.33
4159.68 3519.65 3524.56
4162.6 3567.79 3573.21
4165.51 3583.4 3587.14
4168.42 3542.96 3536.83
4171.33 3445.15 3441.95
4174.25 3422.7 3409.81
4177.16 3392.08 3391.1
4180.07 3446.99 3450.57
4182.98 3408.3 3398.14
4185.89 3419.89 3431.01
4188.8 3450.21 3461.92
4191.72 3419.52 3415.36
4194.63 3373.82 3365.38
4197.54 3330.16 3313.86
4200.45 3293.73 3283.26
4203.36 3358.81 3351.98
4206.28 3438.54 3462.71
4209.19 3503.36 3504.51
4212.1 3453.64 3447.45
4215.01 3432.92 3421.75
4217.92 3473.85 3476.74
4220.83 3460.2 3438.02
4223.74 3321.77 3311.77
4226.66 3371.07 3375.05
4229.57 3444.89 3444.04
4232.48 3376.74 3363.89
4235.39 3323.5 3319.2
4238.3 3341.1 3348.09
4241.21 3395.71 3392.91
4244.12 3396.94 3387.92
4247.03 3376.66 3379.55
4249.95 3417.48 3428.06
4252.86 3432.64 3429.39
4255.77 3470.15 3465.06
4258.68 3430.25 3431.74
4261.59 3524.4 3536.29
4264.5 3598.4 3615.93
4267.41 3507.7 3503.07
4270.32 3416.82 3419.66
4273.23 3456.37 3473.2
4276.14 3543.12 3559.49
4279.05 3532.74 3541.51
4281.96 3527.91 3526.88
4284.88 3497.3 3506.39
4287.79 3477.86 3475.89
4290.7 3456.69 3453.41
4293.61 3442.46 3447.56
4296.52 3335.44 3323.77
4299.43 3212.23 3215.81
4302.34 3200.52 3206.62
4305.25 3190.75 3190.34
4308.16 3220.57 3226.6
4311.07 3243.93 3249.11
4313.98 3256.42 3259.03
4316.89 3305.17 3305.72
4319.8 3274.97 3278.75
4322.71 3188.33 3185.56
4325.62 3095.58 3089.05
4328.53 2945.22 2932.43
4331.44 2801.98 2782.39
4334.35 2537.88 2504.24
4337.26 2212.94 2179.04
4340.17 2060.29 2046.39
4343.08 2164.87 2180.36
4345.99 2328.01 2345.76
4348.9 2428.05 2445.49
4351.81 2560.02 2580.2
4354.72 2743.5 2761.35
4357.63 2836.75 2853.99
4360.54 2959.32 2971.45
4363.45 3068.17 3071.7
4366.35 3166.19 3163.54
4369.26 3218.71 3216.63
4372.17 3250.59 3243.9
4375.08 3289.78 3287.68
4377.99 3377.68 3375.38
4380.9 3316.86 3302.31
4383.81 3237.63 3227.14
4386.72 3301.73 3295.83
4389.63 3281.31 3268.29
4392.54 3328.18 3318.98
4395.45 3321.58 3326.27
4398.35 3312.57 3304.22
4401.26 3373.01 3370.22
4404.17 3375.87 3371.23
4407.08 3372.89 3367.85
4409.99 3390.19 3395.66
4412.9 3361.71 3362.9
4415.81 3366.28 3370.42
4418.72 3360.13 3365.5
4421.62 3434.01 3436.05
4424.53 3425.3 3427.69
4427.44 3365.04 3361.7
4430.35 3367.07 3373.34
4433.26 3377.67 3390.3
4436.17 3449.29 3468.07
4439.07 3479.38 3477.59
4441.98 3378.27 3373.86
4444.89 3356.03 3362.87
4447.8 3355.91 3362.48
4450.71 3336.92 3340.42
4453.61 3361.24 3359.84
4456.52 3350.5 3354.74
4459.43 3327.6 3326.71
4462.34 3249.12 3244.79
4465.25 3239.36 3236.78
4468.15 3214.94 3221.77
4471.06 3306.45 3312.92
4473.97 3397.1 3406.88
4476.88 3377.4 3376.12
4479.78 3296.67 3295.17
4482.69 3310.39 3313.8
4485.6 3371.52 3370.18
4488.51 3354.32 3352.78
4491.41 3375.56 3380.49
4494.32 3398.76 3395.66
4497.23 3420.37 3412.37
4500.13 3435.85 3436.24
4503.04 3529.78 3521.59
4505.95 3495.84 3484.75
4508.86 3520.64 3504.14
4511.76 3525.68 3513.24
4514.67 3482.01 3465.82
4517.58 3403.59 3379.78
4520.48 3322.66 3310.95
4523.39 3257.03 3247.07
4526.3 3238.2 3229.53
4529.2 3251.54 3239.78
4532.11 3295.74 3293.47
4535.02 3299.7 3310.4
4537.92 3309.4 3304.55
4540.83 3302.97 3316.34
4543.74 3336.16 3342.77
4546.64 3299.42 3303.64
4549.55 3227.06 3241.6
4552.45 3142.18 3142.65
4555.36 3116.49 3119.24
4558.27 3152.28 3165.17
4561.17 3186.68 3197.66
4564.08 3262.1 3282.17
4566.98 3297.05 3324.3
4569.89 3298.65 3312.33
4572.8 3300.04 3325.6
4575.7 3333.81 3364.4
4578.61 3301.03 3321.53
4581.51 3291.72 3309.2
4584.42 3286.69 3305.01
4587.32 3288.58 3298.23
4590.23 3285.33 3290.22
4593.14 3253.11 3253.87
4596.04 3305.3 3299.16
4598.95 3337.45 3325.8
4601.85 3323.32 3302.63
4604.76 3327.94 3306.53
4607.66 3364.43 3331.3
4610.57 3384.18 3347.89
4613.47 3410.71 3355.98
4616.38 3356.81 3290.26
4619.28 3369.88 3283.84
4622.19 3431.52 3338.16
4625.09 3434.46 3325.17
4628 3398.56 3273.88
4630.9 3467.2 3326.25
4633.81 3113.37 3258.2
4636.71 3134.4 3272.65
4639.61 3150.37 3276.61
4642.52 3180.86 3297.23
4645.42 3165.41 3264
4648.33 3146.96 3231.11
4651.23 3208.83 3278.91
4654.14 3165.19 3220.97
4657.04 3207.9 3255.23
4659.94 3225.38 3255.68
4662.85 3209.9 3226.55
4665.75 3140.44 3150.76
4668.66 3106.72 3114.53
4671.56 3179.03 3173.39
4674.46 3229.44 3216.65
4677.37 3242.06 3221.9
4680.27 3224.99 3199.95
4683.18 3237.19 3211.54
4686.08 3273.94 3242.14
4688.98 3271.24 3235.17
4691.89 3271.31 3235.44
4694.79 3306.52 3274.29
4697.69 3299.93 3269.09
4700.6 3245.54 3208.14
4703.5 3198.33 3171.47
4706.4 3223.28 3196.2
4709.31 3239.02 3215.99
4712.21 3224.71 3199.57
4715.11 3221.93 3197.64
4718.01 3267.16 3250.3
4720.92 3281.15 3268.44
4723.82 3266.71 3256.92
4726.72 3219.96 3216
4729.63 3207.59 3206.83
4732.53 3231.53 3230.96
4735.43 3176.82 3178.35
4738.33 3199.43 3203.44
4741.24 3184.23 3191.14
4744.14 3184.09 3194.03
4747.04 3170.85 3183.42
4749.94 3187.57 3198.31
4752.85 3161.77 3173.46
4755.75 3152.22 3171.82
4758.65 3134.79 3148.64
4761.55 3114.96 3131.66
4764.45 3094.34 3111.3
4767.36 3096.58 3113.52
4770.26 3111.09 3125.87
4773.16 3108.89 3122.89
4776.06 3112.44 3125.33
4778.96 3132.3 3142.61
4781.86 3075.88 3086.34
4784.76 3061.97 3069.06
4787.67 3011.45 3020.59
4790.57 3027.76 3033.31
4793.47 3017.54 3026.4
4796.37 3021.18 3026.02
4799.27 3014.74 3013.35
4802.17 3005.45 3010.02
4805.07 2961.76 2961.24
4807.97 2938.47 2931.07
4810.88 2944.86 2941.5
4813.78 2969.68 2965.69
4816.68 2984.48 2979.12
4819.58 2920.37 2911.29
4822.48 2868.06 2862.37
4825.38 2861.69 2856.86
4828.28 2839.05 2833.52
4831.18 2861.04 2853.94
4834.08 2839.17 2830.03
4836.98 2833.7 2823.65
4839.88 2803.37 2792.93
4842.78 2726.44 2714.31
4845.68 2656.71 2649.79
4848.58 2594.23 2587.92
4851.48 2461.44 2454.81
4854.38 2261.72 2256.99
4857.28 2038.65 2036.02
4860.18 1804.09 1807.17
4863.08 1795.5 1801
4865.98 1935.61 1942.16
4868.88 2116.58 2119.29
4871.78 2243.96 2243.72
4874.68 2366.95 2365.37
4877.58 2519.39 2518.25
4880.48 2626.02 2624.83
4883.38 2648.68 2650.8
4886.27 2745.79 2744.77
4889.17 2774.68 2777.48
4892.07 2849.1 2851.45
4894.97 2921.67 2927.1
4897.87 2951 2951.81
4900.77 2957.51 2961.79
4903.67 3004.8 3006.88
4906.57 3025.67 3032.9
4909.47 3020.68 3024.68
4912.36 3012.65 3018.37
4915.26 3012.1 3010.49
4918.16 2894.72 2896.92
4921.06 2845.49 2847.15
4923.96 2868.98 2877.36
4926.86 2941.86 2946.97
4929.75 2975.47 2976.21
4932.65 2906.74 2903.96
4935.55 2857.9 2858.8
4938.45 2899.25 2899.72
4941.35 2944.7 2947.65
4944.24 2939.75 2941.18
4947.14 2986.63 2986.36
4950.04 2969.39 2965.75
4952.94 2932.79 2933.39
4955.83 2922.95 2922.28
4958.73 2907.53 2909.53
4961.63 2953.68 2952.97
4964.52 2944.53 2944.04
4967.42 2908.93 2906.24
4970.32 2913.17 2913.03
4973.22 2921.68 2917.91
4976.11 2942.94 2941.09
4979.01 2881.73 2879.43
4981.91 2754.83 2750.17
4984.8 2742.37 2743.95
4987.7 2792.85 2790.57
4990.6 2825.4 2824.56
4993.49 2877.03 2874.53
4996.39 2844.79 2844.19
4999.29 2818.43 2814.95
5002.18 2797.98 2799.48
5005.08 2782.28 2780.83
5007.97 2824.81 2823.65
5010.87 2832.51 2833.51
5013.77 2789.9 2788.05
5016.66 2770.34 2770.25
5019.56 2794.32 2794.56
5022.45 2855.58 2856.78
5025.35 2870.85 2873.31
5028.24 2897.98 2897.66
5031.14 2926.01 2926.44
5034.04 2902.52 2900.68
5036.93 2865.06 2865.76
5039.83 2835.67 2834.22
5042.72 2870.27 2874.11
5045.62 2905.96 2911.27
5048.51 2866.63 2864.44
5051.41 2882.93 2884.07
5054.3 2927 2925.8
5057.2 2918.75 2921.49
5060.09 2982.41 2984.26
5062.99 2930.8 2928.75
5065.88 2929.51 2927.95
5068.77 2893.74 2892.7
5071.67 2859.32 2860.49
5074.56 2803.59 2807.98
5077.46 2756.08 2754.91
5080.35 2728.56 2729.63
5083.25 2739.25 2742.17
5086.14 2765.35 2762.98
5089.03 2793.07 2792.85
5091.93 2801.83 2801.39
5094.82 2830.15 2829.34
5097.72 2751.23 2751.2
5100.61 2760.6 2760.38
5103.5 2771.34 2770.73
5106.4 2778.72 2779.47
5109.29 2760.11 2762.92
5112.18 2783.3 2783.44
5115.08 2773.3 2773.14
5117.97 2777.29 2775.51
5120.86 2729.82 2729.53
5123.76 2663.49 2662.44
5126.65 2684.77 2686.97
5129.54 2701.79 2701.53
5132.43 2691.25 2692.48
5135.33 2691.71 2688.99
5138.22 2696.17 2694.78
5141.11 2690.81 2690.74
5144 2709.37 2705.9
5146.9 2729.7 2729.1
5149.79 2739.42 2739.3
5152.68 2726.93 2727.53
5155.57 2733.03 2734.2
5158.47 2739.12 2738.47
5161.36 2724.22 2720.69
5164.25 2669.9 2670.18
5167.14 2592.41 2590.8
5170.03 2568.48 2569.66
5172.92 2606.05 2606.59
5175.82 2680.05 2682.02
5178.71 2706.15 2706.74
5181.6 2679.33 2675.56
5184.49 2636.74 2638.73
5187.38 2623.54 2621.63
5190.27 2592.87 2596.38
5193.16 2613.87 2614.4
5196.05 2575.97 2575.73
5198.94 2586.61 2589.33
5201.84 2568.6 2572.42
5204.73 2527.23 2526.73
5207.62 2567.99 2572.89
5210.51 2641.23 2643.52
5213.4 2649.77 2652.61
5216.29 2630.96 2632.79
5219.18 2687.05 2686.02
5222.07 2688.25 2686.27
5224.96 2631.48 2625.47
5227.85 2569.41 2563.58
5230.74 2588.86 2583.88
5233.63 2562.9 2555.76
5236.52 2602.87 2599.96
5239.41 2658.61 2657.21
5242.3 2699.18 2700.21
5245.19 2669.92 2669.95
5248.08 2662.88 2666.88
5250.97 2653.98 2656.16
5253.85 2647.37 2651.1
5256.74 2643.33 2648.7
5259.63 2637.26 2641.44
5262.52 2580.59 2584.96
5265.41 2548.05 2551.21
5268.3 2478.87 2480.59
5271.19 2472.21 2477.39
5274.08 2474.06 2473.22
5276.97 2517.61 2515.74
5279.85 2533.99 2529.15
5282.74 2554.66 2549.12
5285.63 2585.55 2580.26
5288.52 2628.32 2625.51
5291.41 2615.47 2611.29
5294.3 2623.1 2620.47
5297.18 2631.83 2629.94
5300.07 2602.42 2602.27
5302.96 2605.58 2607.55
5305.85 2630.93 2635.15
5308.73 2644.64 2649.63
5311.62 2624.6 2625.73
5314.51 2589.71 2588.44
5317.4 2591.42 2591.09
5320.28 2572.43 2572.06
5323.17 2533.83 2534.25
5326.06 2516.52 2515.94
5328.94 2472.45 2471.21
5331.83 2552.93 2553.86
5334.72 2554.7 2554.72
5337.6 2531.03 2532.05
5340.49 2530.92 2530.78
5343.38 2560.22 2561.75
5346.26 2580.25 2580.4
5349.15 2596.96 2595.69
5352.04 2611.72 2611.78
5354.92 2634.29 2633.94
5357.81 2612.48 2611.33
5360.69 2599.35 2597.56
5363.58 2539.08 2537.12
5366.47 2499.82 2500.92
5369.35 2485.62 2485.83
5372.24 2503.76 2507.06
5375.12 2549.51 2552.65
5378.01 2555.85 2553.91
5380.89 2535.57 2536.48
5383.78 2534.03 2534.96
5386.66 2525.31 2526.72
5389.55 2555.73 2555.91
5392.43 2525.51 2524.23
5395.32 2520.56 2522
5398.2 2486.65 2487.38
5401.09 2469.45 2465.64
5403.97 2433.51 2432.03
5406.86 2418.77 2417.42
5409.74 2415.77 2417.35
5412.63 2443.51 2444.97
5415.51 2484.96 2485.45
5418.39 2491.57 2492.93
5421.28 2502.05 2503.36
5424.16 2470.52 2467.37
5427.05 2471.18 2471.26
5429.93 2472.47 2474.47
5432.81 2466.72 2465.97
5435.7 2505.76 2507.11
5438.58 2535.91 2535.06
5441.46 2536.67 2534.56
5444.35 2500.59 2500.59
5447.23 2473.24 2473.83
5450.11 2513.55 2511.85
5453 2500.74 2499.68
5455.88 2480.41 2480.61
5458.76 2495.94 2496.28
5461.64 2472.42 2470.71
5464.53 2479.74 2479.65
5467.41 2508.16 2508.13
5470.29 2472.86 2472.51
5473.17 2421.42 2421.29
5476.06 2401.47 2399.3
5478.94 2405.6 2403.34
5481.82 2440.98 2440.21
5484.7 2473.15 2473.74
5487.58 2477.1 2475.99
5490.46 2485.83 2484.91
5493.35 2506.77 2506.82
5496.23 2470.19 2472.35
5499.11 2440.74 2441.15
5501.99 2446.72 2448.57
5504.87 2454.53 2454.49
5507.75 2437.25 2437.3
5510.63 2422.72 2422.69
5513.51 2439.17 2442.34
5516.4 2471.51 2472.3
5519.28 2463.04 2463.28
5522.16 2451.66 2451.33
5525.04 2444.08 2444.73
5527.92 2426.3 2429.09
5530.8 2444.6 2445.21
5533.68 2416.93 2417.84
5536.56 2433.96 2436.7
5539.44 2458.45 2458.5
5542.32 2425.16 2427.09
5545.2 2391.63 2394.21
5548.08 2418.99 2419.39
5550.96 2435.1 2435.94
5553.84 2457.49 2458.55
5556.72 2426.64 2427.75
5559.6 2443.65 2443.22
5562.47 2424.84 2423.88
5565.35 2420.33 2421.13
5568.23 2414.9 2413.91
5571.11 2397.44 2399.66
5573.99 2392.84 2397.57
5576.87 2408.35 2411.09
5579.75 2418.62 2419.4
5582.63 2411.62 2407.48
5585.5 2378.09 2372.52
5588.38 2385.04 2380.71
5591.26 2379.11 2371.39
5594.14 2368.7 2364.79
5597.02 2392.4 2389.51
5599.89 2363.28 2357.89
5602.77 2380.6 2377.94
5605.65 2399.04 2397.31
5608.53 2390.19 2386.58
5611.4 2394.41 2392.2
5614.28 2372.44 2368.76
5617.16 2359.9 2358.38
5620.04 2355.39 2353.55
5622.91 2353.72 2351.8
5625.79 2360.63 2359.22
5628.67 2381.16 2379.02
5631.54 2385.27 2383.64
5634.42 2368.29 2366.33
5637.3 2353.52 2352.94
5640.17 2341.65 2342.75
5643.05 2350.89 2351.79
5645.93 2351.1 2354.54
5648.8 2343.27 2344.65
5651.68 2357.02 2361.34
5654.55 2332 2335.37
5657.43 2285.6 2288.67
5660.3 2277.65 2280.97
5663.18 2253.84 2259.36
5666.06 2275.09 2280.47
5668.93 2310.07 2316.26
5671.81 2314.85 2321.87
5674.68 2335.8 2341.81
5677.56 2316.22 2322.65
5680.43 2300.16 2306.6
5683.31 2283.45 2289.61
5686.18 2262.11 2270.28
5689.06 2260.62 2268.45
5691.93 2284.84 2291.48
5694.8 2284.26 2291.58
5697.68 2280.56 2286.89
5700.55 2273.16 2280.45
5703.43 2272.96 2277.44
5706.3 2249.44 2254.82
5709.17 2239.87 2244.85
5712.05 2253.17 2256.23
5714.92 2265.59 2267.08
5717.8 2266.54 2267.57
5720.67 2285.92 2285.18
5723.54 2304.9 2302.93
5726.41 2278.94 2274.62
5729.29 2288.26 2280.76
5732.16 2299.04 2289.51
5735.03 2277.49 2264.25
5737.91 2299.6 2283.98
5740.78 2292.67 2272.95
5743.65 2294.91 2270.93
5746.52 2273.76 2248.48
5749.4 2287.36 2255
5752.27 2290.47 2255.53
5755.14 2281.7 2241.51
5758.01 2297.74 2252.65
5760.88 2284.44 2234.74
5763.76 2296.22 2240.44
5766.63 2293.43 2230.76
5769.5 2311.42 2240.67
5772.37 2313.1 2235.2
5775.24 2140.06 2245.65
5778.11 2141.34 2238.84
5780.98 2134.06 2219.96
5783.86 2134.24 2217.22
5786.73 2141.57 2212.07
5789.6 2173.19 2237.21
5792.47 2178.29 2233.33
5795.34 2175.59 2223.42
5798.21 2190.84 2231.92
5801.08 2202.39 2236.03
5803.95 2191.37 2220.17
5806.82 2187.41 2207.93
5809.69 2211.72 2226.19
5812.56 2233.38 2238.74
5815.43 2225.95 2225.6
5818.3 2244.87 2242.74
5821.17 2225.7 2221.18
5824.04 2260.58 2247.03
5826.91 2239.57 2220.16
5829.77 2239.04 2220.88
5832.64 2261.04 2236.49
5835.51 2262.01 2236.58
5838.38 2246.8 2219.13
5841.25 2258.65 2236.31
5844.12 2250.2 2225.54
5846.99 2230.35 2205.52
5849.86 2242.87 2214.14
5852.72 2164.6 2143.25
5855.59 2180.77 2158.04
5858.46 2185.89 2166.57
5861.33 2185.06 2168.19
5864.2 2210.02 2189.08
5867.06 2211.67 2192.3
5869.93 2221.63 2204.34
5872.8 2227.99 2212.15
5875.67 2222.65 2214.93
5878.53 2200.94 2195.91
5881.4 2187.11 2186.22
5884.27 2171.71 2173.74
5887.13 2116.5 2121.75
5890 2051.01 2060.09
5892.87 2054.82 2067.78
5895.73 2066.04 2072.53
5898.6 2108.55 2116.63
5901.47 2124.39 2131.87
5904.33 2140.48 2148.41
5907.2 2136.39 2147.08
5910.06 2142.27 2153.96
5912.93 2134.14 2149.73
5915.79 2129.16 2143.25
5918.66 2150.63 2162.23
5921.53 2136.55 2148.72
5924.39 2137.69 2147.8
5927.26 2143.24 2154.26
5930.12 2107.78 2118.2
5932.99 2111.9 2120.68
5935.85 2128.63 2138.1
5938.72 2137.82 2145.9
5941.58 2134.26 2140.49
5944.44 2119.19 2123.26
5947.31 2110.64 2115.03
5950.17 2124.47 2124.96
5953.04 2107.88 2110.86
5955.9 2118.9 2119.95
5958.76 2124.91 2121.98
5961.63 2130.95 2129.56
5964.49 2108.81 2101.9
5967.36 2114.62 2109.91
5970.22 2132.67 2126.9
5973.08 2111.85 2107.57
