wavelength spectrum_sum 3smoothed_sum spectrum_optimal 3smoothed_optimal
3402.44 -15.8938 -40.0523 -90.2292 -52.7463
3405.37 -104.263 -68.1924 -68.0097 -183.312
3408.3 -84.4204 -105.732 -391.698 -279.337
3411.23 -128.514 -117.709 -378.304 -287.649
3414.16 -140.192 -129.803 -92.9436 -8.9289
3417.09 -120.705 -41.1197 444.461 -85.3214
3420.02 137.538 -40.4858 -607.481 -142.667
3422.95 -138.29 -38.7643 -264.981 -87.9363
3425.88 -115.54 -159.14 608.653 179.382
3428.8 -223.59 -86.6929 194.474 180.764
3431.73 79.0511 -92.5609 -260.836 -122.374
3434.66 -133.144 -47.9984 -300.759 -213.108
3437.59 -89.9021 -73.8808 -77.7292 -63.364
3440.52 1.40409 15.0024 188.396 50.6373
3443.45 133.505 76.273 41.2453 81.7369
3446.38 93.9096 66.9247 15.5694 105.01
3449.3 -26.6409 0.72207 258.214 217.655
3452.23 -65.1025 -88.6334 379.183 210.007
3455.16 -174.157 -67.2768 -7.37482 71.7755
3458.09 37.429 -99.3277 -156.482 28.677
3461.02 -161.255 -104.015 249.887 49.3911
3463.95 -188.22 -124.969 54.7673 95.5194
3466.88 -25.433 -130.549 -18.0964 10.8666
3469.8 -177.993 -116.664 -4.07108 5.49152
3472.73 -146.567 -176.031 38.6421 -62.2727
3475.66 -203.531 -92.7984 -221.389 -9.5384
3478.59 71.7032 -57.2972 154.132 -81.993
3481.52 -40.0637 7.27424 -178.722 -227.424
3484.44 -9.8167 25.6018 -657.681 -372.861
3487.37 126.686 18.3402 -282.181 -196.023
3490.3 -61.8485 -71.0392 351.793 74.4913
3493.23 -277.955 -193.197 153.861 40.7524
3496.16 -239.786 -229.426 -383.397 -175.394
3499.08 -170.538 -192.484 -296.645 -151.932
3502.01 -167.127 -102.411 224.245 30.8747
3504.94 30.4327 -140.01 165.024 138.783
3507.87 -283.337 -85.5195 27.0792 92.119
3510.8 -3.65438 -64.2799 84.2538 -57.3325
3513.72 94.1515 88.2807 -283.33 -269.172
3516.65 174.345 129.894 -608.439 -342.013
3519.58 121.186 95.817 -134.269 -191.199
3522.51 -8.07976 35.6382 169.11 34.0741
3525.43 -6.1914 50.3419 67.3811 165.704
3528.36 165.297 53.7347 260.621 8.97287
3531.29 2.09872 103.887 -301.083 -84.3971
3534.22 144.266 67.0642 -212.729 -67.5433
3537.14 54.8275 38.0715 311.182 5.5223
3540.07 -84.8795 32.8674 -81.8864 139.06
3543 128.654 58.5323 187.883 180.347
3545.92 131.822 144.928 435.046 116.996
3548.85 174.308 166.933 -271.941 -196.03
3551.78 194.669 222.822 -751.196 -409.778
3554.71 299.49 115.475 -206.198 -173.886
3557.63 -147.734 53.7796 435.734 154.985
3560.56 9.58366 -75.248 235.418 110.036
3563.49 -87.5932 10.1852 -341.045 -88.4836
3566.41 108.565 86.4833 -159.824 -151.866
3569.34 238.478 101.354 45.2713 -71.0425
3572.27 -42.9797 145.786 -98.5749 -238.585
3575.19 241.858 71.6053 -662.453 -397.659
3578.12 15.9375 19.4172 -431.948 -264.435
3581.05 -199.544 -60.9573 301.095 -129.154
3583.97 0.7346 -101.173 -256.61 -28.7323
3586.9 -104.711 -32.644 -130.682 -120.82
3589.83 6.04403 -35.2262 24.8329 -174.068
3592.75 -7.0121 63.3942 -416.355 -330.832
3595.68 191.151 160.728 -600.974 -486.328
3598.61 298.045 168.653 -441.654 -350.346
3601.53 16.7628 125.909 -8.40957 -185.261
3604.46 62.9181 69.1658 -105.719 -141.156
3607.38 127.816 140.638 -309.338 -215.688
3610.31 231.179 144.683 -232.006 -216.739
3613.24 75.0526 94.4307 -108.872 -88.8406
3616.16 -22.9395 75.1195 74.3559 93.3691
3619.09 173.245 58.5767 314.623 239.794
3622.01 25.4241 -27.4586 330.403 311.678
3624.94 -281.045 -100.2 290.007 278.511
3627.87 -44.979 3.23824 215.122 148.594
3630.79 335.739 161.222 -59.3486 -11.1332
3633.72 192.907 175.734 -189.173 67.7102
3636.64 -1.44537 47.6683 451.652 274.256
3639.57 -48.4563 56.6282 560.288 361.527
3642.49 219.786 66.1693 72.6397 198.365
3645.42 27.1777 143.491 -37.8333 91.6086
3648.35 183.508 84.3528 240.019 147.126
3651.27 42.3722 101.821 239.193 164.209
3654.2 79.5828 2.76698 13.4147 69.1639
3657.12 -113.654 -21.0765 -45.1163 -171.002
3660.05 -29.1581 -33.9244 -481.304 -384.713
3662.97 41.039 114.162 -627.718 -376.333
3665.9 330.606 53.9596 -19.978 -338.788
3668.82 -209.766 6.33201 -368.668 -328.609
3671.75 -101.844 -144.2 -597.18 -470.376
3674.67 -120.989 -50.4796 -445.281 -593.249
3677.6 71.3934 -47.541 -737.286 -425.922
3680.52 -93.0279 -34.2914 -95.1994 -316.122
3683.45 -81.2398 -108.726 -115.88 -124.797
3686.37 -151.911 -135.456 -163.31 -16.7256
3689.3 -173.219 -47.1837 229.014 258.768
3692.22 183.578 -99.6636 710.601 430.958
3695.15 -309.35 -24.2772 353.259 480.803
3698.07 52.9406 -135.039 378.549 324.686
3701 -148.707 23.8931 242.251 268.107
3703.92 167.445 -45.4274 183.521 53.9232
3706.85 -155.021 31.1286 -264.002 -60.6475
3709.77 80.9614 -89.1348 -101.461 -83.5381
3712.7 -193.345 -58.9783 114.849 -82.4513
3715.62 -64.5515 -111.942 -260.742 -92.6063
3718.55 -77.9287 -26.0768 -131.926 -42.9903
3721.47 64.2499 -9.91772 263.697 51.037
3724.39 -16.0743 34.4465 21.34 70.5341
3727.32 55.164 -41.612 -73.4348 -159.667
3730.24 -163.926 -19.1063 -426.906 -425.328
3733.17 51.4427 24.5863 -775.644 -466.611
3736.09 186.242 114.968 -197.282 -481.334
3739.02 107.218 180.275 -471.075 -481.755
3741.94 247.364 133.282 -776.907 -508.715
3744.86 45.2656 71.9164 -278.163 -438.044
3747.79 -76.8801 -30.5503 -259.061 -38.7047
3750.71 -60.0363 -143.398 421.109 3.21049
3753.64 -293.279 -144.738 -152.418 -78.7096
3756.56 -80.8979 -217.024 -504.821 -215.512
3759.48 -276.896 -122.683 10.7009 -241.735
3762.41 -10.2547 -128.847 -231.084 -173.33
3765.33 -99.3892 -21.2884 -299.606 -304.013
3768.25 45.7788 14.2015 -381.349 -437.359
3771.18 96.2149 -59.5563 -631.123 -499.732
3774.1 -320.663 -72.2661 -486.726 -637.788
3777.02 7.64936 -101.864 -795.516 -911.244
3779.95 7.42265 85.3172 -1451.49 -1038.86
3782.87 240.879 87.2788 -869.585 -912.627
3785.79 13.5344 112.977 -416.804 -626.514
3788.72 84.5183 53.563 -593.154 -473.783
3791.64 62.6363 82.5285 -411.392 -506.877
3794.56 100.431 62.8379 -516.086 -311.211
3797.49 25.4465 4.9329 -6.15654 37.8716
3800.41 -111.079 -127.904 635.857 508.972
3803.33 -298.079 -247.663 897.216 951.012
3806.26 -333.832 -213.801 1319.96 1150.44
3809.18 -9.49208 -72.7849 1234.15 1170.33
3812.1 124.969 86.9092 956.882 733.056
3815.03 145.25 186.574 8.13735 243.393
3817.95 289.503 291.69 -234.84 -142.623
3820.87 440.317 279.404 -201.167 -293.338
3823.79 108.391 243.005 -444.007 -128.746
3826.72 180.308 138.685 258.935 -72.3983
3829.64 127.357 81.1567 -32.1235 172.904
3832.56 -64.195 90.5749 291.9 63.3147
3835.48 208.562 68.4005 -69.832 32.9429
3838.41 60.8342 148.783 -123.239 -7.56033
3841.33 176.954 99.55 170.39 123.983
3844.25 60.8619 35.5282 324.799 108.35
3847.17 -131.231 -32.7468 -170.139 -75.4886
3850.1 -27.871 -98.4986 -381.126 -119.913
3853.02 -136.394 46.4827 191.527 9.13327
3855.94 303.713 81.6967 216.999 89.183
3858.86 77.7711 172.79 -140.977 -210.605
3861.78 136.885 165.908 -707.837 -365.973
3864.71 283.068 151.381 -249.105 -460.637
3867.63 34.1891 42.2359 -424.968 -174.324
3870.55 -190.549 12.0495 151.099 -198.854
3873.47 192.508 5.35735 -322.694 -407.435
3876.39 14.1128 3.40599 -1050.71 -688.042
3879.31 -196.403 -86.2534 -690.72 -728.657
3882.24 -76.4697 -84.2593 -444.539 -400.875
3885.16 20.095 -9.69494 -67.3649 -274.263
3888.08 27.2899 6.23884 -310.885 -160.795
3891 -28.6684 55.273 -104.134 -165.305
3893.92 167.198 114.516 -80.8979 -34.0264
3896.84 205.019 116.834 82.9526 -124.696
3899.77 -21.7139 104.651 -376.143 -583.093
3902.69 130.647 38.0783 -1456.09 -605.131
3905.61 5.30199 47.4371 16.8364 -582.457
3908.53 6.36255 16.3033 -308.121 -252.998
3911.45 37.2453 -16.6884 -467.709 -333.509
3914.37 -93.6731 -77.1963 -224.697 -35.0162
3917.29 -175.161 -63.373 587.358 126.197
3920.21 78.7151 -41.3674 15.9293 497.836
3923.13 -27.6562 51.5097 890.22 378.014
3926.06 103.47 91.3124 227.892 425.018
3928.98 198.123 144.582 156.941 -61.7248
3931.9 132.153 -1.51951 -570.007 120.802
3934.82 -334.835 -100.796 775.472 243.345
3937.74 -99.7075 -209.745 524.57 233.186
3940.66 -194.694 -76.6531 -600.485 -82.7338
3943.58 64.442 98.1469 -172.286 -254.797
3946.5 424.692 144.488 8.37918 -76.9396
3949.42 -55.6716 71.4337 -66.9118 -163.646
3952.34 -154.72 -92.2464 -432.406 -158.499
3955.26 -66.348 -36.2644 23.821 -82.5673
3958.18 112.274 -4.61513 160.883 257.705
3961.1 -59.7718 89.2905 588.41 150.957
3964.02 215.369 59.1883 -296.424 -43.7621
3966.94 21.9678 50.4453 -423.273 -240.615
3969.86 -86.0008 -16.527 -2.14831 -317.095
3972.78 14.4519 121.442 -525.865 -282.498
3975.7 435.874 216.539 -319.479 -268.244
3978.62 199.29 314.697 40.6122 -199.698
3981.54 308.927 160.431 -320.226 -519.438
3984.46 -26.9249 188.051 -1278.7 -784.736
3987.38 282.15 121.919 -755.282 -667.238
3990.3 110.533 262.028 32.2685 -310.079
3993.22 393.403 151.746 -207.222 -245.792
3996.14 -48.6983 230.748 -562.421 -1006.1
3999.06 347.54 100.899 -2248.65 -1345.62
4001.98 3.85486 111.731 -1225.78 -1174.42
4004.9 -16.2021 100.344 -48.8128 -862.949
4007.82 313.38 125.725 -1314.25 -661.12
4010.74 79.9963 163.663 -620.292 -925.208
4013.66 97.6134 74.9117 -841.079 -1053.32
4016.58 47.1253 -24.0005 -1698.6 -837.482
4019.5 -216.74 -141.534 27.233 -550.947
4022.42 -254.988 -39.1769 18.5249 -52.1601
4025.33 354.197 5.5882 -202.238 -491.123
4028.25 -82.4448 29.9193 -1289.66 -537.096
4031.17 -181.995 -123.916 -119.394 -565.824
4034.09 -107.31 -19.1559 -288.421 3.94668
4037.01 231.837 23.2777 419.655 31.3416
4039.93 -54.6936 178.01 -37.2095 -79.7872
4042.85 356.888 36.4155 -621.807 -103.205
4045.77 -192.948 186.244 349.403 -519.965
4048.69 394.792 188.062 -1287.49 -685.04
4051.6 362.343 353.012 -1117.03 -920.678
4054.52 301.902 271.003 -357.511 -652.911
4057.44 148.764 100.114 -484.188 -221.565
4060.36 -150.324 -75.2294 177.003 -27.7329
4063.28 -224.129 -82.423 223.987 -60.5672
4066.2 127.183 2.22218 -582.691 -118.051
4069.11 103.612 228.457 4.55018 -198.303
4072.03 454.575 200.439 -16.7671 -97.1156
4074.95 43.13 210.924 -279.13 110.945
4077.87 135.068 128.496 628.731 -67.6389
4080.79 207.291 192.827 -552.518 -140.186
4083.7 236.123 100.98 -496.771 -545.727
4086.62 -140.474 6.98237 -587.893 -153.792
4089.54 -74.7016 -26.3486 623.288 -379.441
4092.46 136.13 -95.4282 -1173.72 -161.06
4095.38 -347.713 -154.881 67.2501 -199.205
4098.29 -253.06 -98.5357 508.854 -281.683
4101.21 305.166 8.87262 -1421.15 -209.069
4104.13 -25.4882 59.5278 285.092 8.52979
4107.05 -101.095 4.47199 1161.65 533.071
4109.96 139.999 0.86584 152.469 553.926
4112.88 -36.3066 214.913 347.656 451.168
4115.8 541.048 249.237 853.38 255.679
4118.72 242.97 247.231 -433.998 219.332
4121.63 -42.3255 -52.7098 238.614 137.342
4124.55 -358.774 -10.6344 607.409 500.413
4127.47 369.196 185.974 655.215 615.242
4130.38 547.501 383.541 583.101 703.181
4133.3 233.925 332.607 871.227 992.403
4136.22 216.395 331.601 1522.88 892.323
4139.14 544.483 325.956 282.859 676.766
4142.05 216.99 410.154 224.557 30.2686
4144.97 468.991 350.967 -416.611 429.261
4147.89 366.92 406.965 1479.84 294.278
4150.8 384.985 351.635 -180.391 103.77
4153.72 303 342.896 -988.137 -276.055
4156.64 340.704 373.976 340.363 -516.127
4159.55 478.223 406.558 -900.607 -519.055
4162.47 400.746 346.874 -996.921 197.903
4165.39 161.653 285.8 2491.24 408.608
4168.3 295.001 249.004 -268.489 692.457
4171.22 290.357 273.801 -145.376 -402.577
4174.13 236.046 212.854 -793.865 -560.056
4177.05 112.158 132.682 -740.928 105.061
4179.97 49.8408 92.1951 1849.97 515.051
4182.88 114.586 279.378 436.106 1072.83
4185.8 673.706 345.228 932.419 381.387
4188.71 247.393 280.394 -224.362 463.25
4191.63 -79.9159 2.10136 681.695 142.908
4194.55 -161.173 1.02396 -28.6075 -163.758
4197.46 244.16 175.961 -1144.36 -667.124
4200.38 444.895 201.874 -828.402 -651.691
4203.29 -83.4338 205.654 17.6928 -373.449
4206.21 255.502 112.453 -309.638 -202.729
4209.12 165.292 268.52 -316.242 468.426
4212.04 384.765 312.537 2031.16 349.287
4214.96 387.553 278.205 -667.056 -37.9927
4217.87 62.2971 110.454 -1478.08 -442.869
4220.79 -118.489 44.7945 816.53 578.173
4223.7 190.575 147.71 2396.07 242.374
4226.62 371.044 214.933 -2485.48 -326.281
4229.53 83.1811 287.434 -889.436 -1172.11
4232.45 408.076 113.428 -141.418 -408.68
4235.36 -150.974 116.849 -195.186 -427.496
4238.28 93.4461 73.4424 -945.884 -808.438
4241.19 277.856 193.26 -1284.24 -802.249
4244.11 208.479 277.655 -176.619 216.44
4247.02 346.63 371.575 2110.18 643.371
4249.94 559.616 348.607 -3.45134 1050.68
4252.85 139.576 450.691 1045.29 496.488
4255.76 652.881 357.691 447.622 526.542
4258.68 280.616 330.116 86.7115 210.691
4261.59 56.8526 212.424 97.7408 -161.123
4264.51 299.805 340.213 -667.821 -109.996
4267.42 663.982 402.876 240.092 48.7057
4270.34 244.841 416.199 573.846 567.784
4273.25 339.773 275.915 889.413 -16.5798
4276.16 243.13 238.927 -1513 84.9716
4279.08 133.877 199.981 878.5 -97.9553
4281.99 222.934 115.79 340.632 788.79
4284.91 -9.44033 70.259 1147.24 851.459
4287.82 -2.71681 58.9123 1066.51 254.485
4290.73 188.894 190.899 -1450.29 451.709
4293.65 386.52 327.221 1738.91 -192.975
4296.56 406.25 453.862 -867.546 46.7154
4299.48 568.815 364.956 -731.215 -643.36
4302.39 119.802 294.965 -331.318 -454.279
4305.3 196.279 190.955 -300.302 405.881
4308.22 256.784 246.329 1849.26 492.66
4311.13 285.925 159.177 -70.9821 866.044
4314.04 -65.1765 63.6253 819.85 -472.114
4316.96 -29.8723 -78.1651 -2165.21 597.694
4319.87 -139.446 8.89609 3138.44 -3.34494
4322.78 196.007 67.7979 -983.267 944.286
4325.7 146.833 98.3493 677.682 501.776
4328.61 -47.7925 -16.8279 1810.91 836.373
4331.52 -149.525 -106.646 20.5231 658.391
4334.43 -122.622 -33.7726 143.737 -164.367
4337.35 170.829 172.398 -657.361 219.269
4340.26 468.988 291.751 1171.43 -187.235
4343.17 235.436 314.145 -1075.78 92.0567
4346.09 238.011 140.474 180.515 -83.7367
4349 -52.0258 74.0897 644.051 -663.295
4351.91 36.2838 54.449 -2814.45 -873.849
4354.82 179.089 278.131 -451.147 -952.638
4357.74 619.021 315.854 407.684 -70.6332
4360.65 149.452 398.847 -168.437 487.377
4363.56 428.07 314.13 1222.89 429.997
4366.47 364.87 306.697 235.542 968.326
4369.38 127.152 326.076 1446.55 388.161
4372.3 486.207 214.205 -517.61 311.233
4375.21 29.2576 296.25 4.75857 76.1934
4378.12 373.285 308.716 741.432 601.65
4381.03 523.604 396.762 1058.76 372.216
4383.94 293.397 357.834 -683.543 390.863
4386.86 256.501 391.686 797.374 617.666
4389.77 625.161 457.387 1739.17 160.324
4392.68 490.498 525.404 -2055.57 1395.65
4395.59 460.553 467.036 4503.34 -388.782
4398.5 450.057 374.413 -3614.11 583.661
4401.41 212.628 306.073 861.76 -820.504
4404.33 255.533 269.911 290.842 760.288
4407.24 341.573 304.335 1128.26 -29.0135
4410.15 315.901 345.162 -1506.14 -476.267
4413.06 378.013 396.851 -1050.92 -566.789
4415.97 496.64 419.452 856.693 449.567
4418.88 383.703 407.504 1542.92 994.09
4421.79 342.169 377.917 582.652 1243.52
4424.7 407.878 376.33 1604.97 976.849
4427.61 378.944 366.623 742.925 816.8
4430.52 313.048 385.248 102.503 -4.9375
4433.44 463.751 298.868 -860.24 342.501
4436.35 119.806 518.021 1785.24 65.2332
4439.26 970.506 401.626 -729.301 1766.36
4442.17 114.566 550.351 4243.14 1806.78
4445.08 565.981 439.668 1906.51 2777.03
4447.99 638.458 550.62 2181.45 770.056
4450.9 447.42 508.993 -1777.78 -373.112
4453.81 441.1 432.355 -1523 546.422
4456.72 408.545 512.772 4940.04 733.796
4459.63 688.671 518.122 -1215.66 875.239
4462.54 457.149 541.033 -1098.67 1036.68
4465.45 477.279 470.264 5424.37 849.709
4468.36 476.364 371.176 -1776.58 1880.23
4471.27 159.885 400.899 1992.9 -147.694
4474.18 566.45 505.077 -659.401 813.674
4477.09 788.898 522.1 1107.53 210.118
4480 210.952 338.684 182.228 682.332
4482.91 16.2014 266.525 757.239 1708.1
4485.82 572.422 437.916 4184.84 456.109
4488.73 725.123 535.465 -3573.75 405.462
4491.64 308.849 501.741 605.298 509.806
4494.55 471.251 381.645 4497.87 303.641
4497.46 364.835 287.874 -4192.25 1209.2
4500.36 27.5375 224.598 3321.97 1330.93
4503.27 281.421 350.67 4863.07 2117.99
4506.18 743.05 559.565 -1831.06 -138.117
4509.09 654.222 475.375 -3446.36 -1195.49
4512 28.8513 470.791 1690.95 -283.609
4514.91 729.299 478.595 904.587 968.713
4517.82 677.635 645.948 310.602 1180.96
4520.73 530.91 530.594 2327.69 -20.8124
4523.64 383.236 263.762 -2700.73 -386.144
4526.54 -122.859 223.929 -785.393 1378.95
4529.45 411.409 292.058 7622.97 1032.95
4532.36 587.623 476.249 -3738.72 1868.14
4535.27 429.715 564.29 1720.17 -208.559
4538.18 675.533 418.788 1392.87 2097.19
4541.09 151.118 502.339 3178.53 1102.1
4543.99 680.368 331.723 -1265.09 1305.82
4546.9 163.683 358.817 2004.03 567.866
4549.81 232.4 231.152 964.662 1016.73
4552.72 297.373 221.529 81.4893 746.075
4555.63 134.815 226.039 1192.07 310.531
4558.53 245.929 255.79 -341.97 161.664
4561.44 386.626 302.988 -365.111 383.119
4564.35 276.41 323.284 1856.44 902.547
4567.26 306.815 317.093 1216.31 904.233
4570.17 368.054 372.444 -360.055 1196.65
4573.07 442.462 518.972 2733.68 147.282
4575.98 746.4 473.35 -1931.78 1395.62
4578.89 231.189 407.796 3384.96 914.394
4581.79 245.799 256.229 1290.01 1578.71
4584.7 291.7 352.929 61.1792 612.265
4587.61 521.289 369.875 485.61 345.013
4590.52 296.637 552.161 488.251 1797.52
4593.42 838.556 637.536 4418.71 2628.46
4596.33 777.416 641.42 2978.44 1450.96
4599.24 308.288 492.052 -3044.27 882.466
4602.14 390.453 457.142 2713.23 568.938
4605.05 672.684 455.775 2037.85 2707.77
4607.96 304.187 571.987 3372.24 1899.44
4610.86 739.09 525.008 288.225 1550.89
4613.77 531.747 491.163 992.214 300.831
4616.68 202.652 468.406 -377.947 711.838
4619.58 670.818 486.874 1521.25 -579.373
4622.49 587.153 501.49 -2881.42 446.229
4625.4 246.5 469.489 2698.86 1433.89
4628.3 574.815 397.272 4484.23 1987.86
4631.21 370.502 510.026 -1219.5 899.683
4634.11 584.76 449.033 -565.677 -238.584
4637.02 391.836 525.695 1069.42 1745.31
4639.93 600.489 545.66 4732.18 1635.37
4642.83 644.655 668.337 -895.498 1642.06
4645.74 759.866 631.822 1089.5 25.0144
4648.64 490.946 583.93 -118.96 309.817
4651.55 500.978 411.884 -41.0901 1760.51
4654.45 243.727 392.239 5441.59 1256.47
4657.36 432.012 368.735 -1631.1 1283.6
4660.27 430.466 411.988 40.2996 1395.36
4663.17 373.485 397.779 5776.89 315.086
4666.08 389.387 499.676 -4871.93 1020.41
4668.98 736.155 672.099 2156.27 -1035.87
4671.89 890.754 610.259 -391.954 1916.8
4674.79 203.868 565.243 3986.08 1223.25
4677.7 601.106 315.684 75.6228 1189.19
4680.6 142.079 352.565 -494.142 102.53
4683.51 314.512 270.093 726.11 -376.715
4686.41 353.688 362.846 -1362.11 645.795
4689.32 420.337 460.608 2573.39 1153.42
4692.22 607.799 432.596 2248.99 2125.92
4695.12 269.651 627.695 1555.37 1707.88
4698.03 1005.63 578.813 1319.29 1359.33
4700.93 461.154 637.084 1203.33 1520.76
4703.84 444.465 512.651 2039.66 1229.7
4706.74 632.333 388.261 446.105 72.4554
4709.65 87.9851 274.754 -2268.4 -54.2297
4712.55 103.945 225.61 1659.61 908.001
4715.45 484.899 476.298 3332.8 1446.16
4718.36 840.05 779.969 -653.925 1768.89
4721.26 1014.96 881.9 2627.78 2370.85
4724.17 790.695 777.726 5138.69 1910.94
4727.07 527.526 548.807 -2033.65 -446.515
4729.97 328.2 420.22 -4444.58 -495.577
4732.88 404.935 542.971 4991.5 715.227
4735.78 895.779 677.6 1598.76 2764.7
4738.68 732.086 763.162 1703.84 1130.23
4741.59 661.622 636.489 88.0833 1036.38
4744.49 515.757 544.539 1317.23 92.7009
4747.39 456.238 391.85 -1127.21 -314.143
4750.3 203.556 500.679 -1132.45 -60.7502
4753.2 842.244 445.816 2077.41 1059.47
4756.1 291.649 612.762 2233.44 2187.14
4759 704.392 557.559 2250.57 2114.32
4761.91 676.636 602.564 1858.95 2068.68
4764.81 426.662 539.324 2096.51 1599.05
4767.71 514.675 532.318 841.683 774.379
4770.62 655.617 471.884 -615.057 401.173
4773.52 245.359 450.14 976.891 1729.84
4776.42 449.442 408.208 4827.69 1844.1
4779.32 529.822 384.227 -272.299 1016.02
4782.23 173.415 504.166 -1507.34 768.368
4785.13 809.26 387.399 4084.74 102.072
4788.03 179.52 413.101 -2271.19 1679.91
4790.93 250.524 291.121 3226.18 276.997
4793.83 443.321 235.269 -124 832.435
4796.74 11.9636 166.45 -604.874 -160.069
4799.64 44.0654 179.527 248.666 1097.43
4802.54 482.552 273.235 3648.5 1443.21
4805.44 293.088 371.628 432.459 1252.99
4808.34 339.245 336.207 -321.986 1442.24
4811.24 376.289 155.23 4216.24 2937.15
4814.15 -249.845 165.775 4917.2 2191.85
4817.05 370.88 148.649 -2557.89 1702.18
4819.95 324.912 285.401 2747.23 367.62
