wavelength spec_sum spec_optimal
3422.95 -11.2385 26.5238
3425.88 2.09914 811.497
3428.8 17.7582 721.244
3431.73 16.3342 32.0124
3434.66 -10.6206 -67.1952
3437.59 -3.83288 72.381
3440.52 36.1681 292.538
3443.45 33.3408 244.02
3446.38 35.3823 -348.078
3449.3 -23.9168 220.561
3452.23 -18.0324 203.22
3455.16 5.75995 -124.535
3458.09 -26.7956 -406.794
3461.02 -11.3423 239.679
3463.95 17.5417 -45.5884
3466.88 -6.3261 -184.971
3469.8 -24.7655 -71.4148
3472.73 28.356 78.2975
3475.66 -53.8948 -52.3978
3478.59 -58.1269 -162.224
3481.52 -12.0318 270.821
3484.44 9.95767 -117.315
3487.37 10.3778 17.6857
3490.3 -33.9472 209.268
3493.23 -42.911 378.951
3496.16 -66.1569 246.765
3499.08 1.02465 -97.3763
3502.01 -9.38874 -48.7856
3504.94 0.0990009 141.608
3507.87 -11.0644 50.4119
3510.8 5.01851 -140.247
3513.72 15.1548 26.6581
3516.65 32.2089 -358.054
3519.58 31.527 -169.926
3522.51 27.8539 7.47608
3525.43 15.0453 11.8664
3528.36 31.1939 -107.053
3531.29 31.6601 407.767
3534.22 54.1765 156.156
3537.14 74.0571 837.946
3540.07 46.376 283.158
3543 26.8647 -33.3625
3545.92 34.0704 464.752
3548.85 17.158 150.115
3551.78 34.9458 -391.744
3554.71 -5.7749 -406.978
3557.63 34.2517 106.024
3560.56 44.4715 188.387
3563.49 -46.7235 -212.79
3566.41 -16.7585 5.72733
3569.34 43.1559 -67.3645
3572.27 7.57281 107.627
3575.19 13.7088 -106.27
3578.12 -28.7102 -367.229
3581.05 -14.0853 345.084
3583.97 13.7198 91.5601
3586.9 14.7779 62.7601
3589.83 18.2202 329.019
3592.75 -39.3691 174.991
3595.68 35.0761 84.3521
3598.61 42.0105 -148.451
3601.53 12.0192 -28.5858
3604.46 -14.408 237.671
3607.38 -24.7483 163.792
3610.31 44.5022 152.49
3613.24 23.9557 44.026
3616.16 28.2779 159.257
3619.09 17.7472 171.464
3622.01 49.5253 370.633
3624.94 -5.61709 -35.8295
3627.87 33.3625 31.6492
3630.79 31.7675 270.133
3633.72 78.2116 134.743
3636.64 27.6632 657.831
3639.57 100.865 522.006
3642.49 43.1334 268.348
3645.42 33.2964 147.292
3648.35 47.7364 371.98
3651.27 67.3461 349.493
3654.2 35.718 229.704
3657.12 49.8371 140.297
3660.05 1.80836 69.5068
3662.97 -22.2198 -233.757
3665.9 50.5957 -198.141
3668.82 -32.7719 -118.036
3671.75 -30.4126 -191.639
3674.67 0.713848 -156.593
3677.6 -1.1791 -665.041
3680.52 -19.4635 -291.104
3683.45 -10.5994 -244.387
3686.37 -35.3616 -148.823
3689.3 -16.3795 29.4857
3692.22 32.1083 310.027
3695.15 1.58533 -30.4512
3698.07 -2.11024 38.2686
3701 -2.08769 87.0471
3703.92 34.4625 190.471
3706.85 -0.456621 151.727
3709.77 11.7431 -64.3756
3712.7 -16.0193 30.8298
3715.62 -23.8391 -25.3823
3718.55 12.2183 127.826
3721.47 2.14198 377.49
3724.39 16.7064 62.2953
3727.32 26.4493 18.964
3730.24 -18.9975 308.157
3733.17 9.55902 -75.2171
3736.09 22.5369 -44.5692
3739.02 37.3024 135.283
3741.94 36.5997 -17.9924
3744.86 28.2223 -116.983
3747.79 29.0424 23.1314
3750.71 0.323783 43.9899
3753.64 30.0681 277.46
3756.56 -1.54341 -166.589
3759.48 6.00037 177.306
3762.41 5.12041 -68.3943
3765.33 -53.6015 -15.1836
3768.25 2.42916 33.6751
3771.18 53.6042 148.156
3774.1 -25.614 119.607
3777.02 24.7255 -1.73712
3779.95 0.0568638 -279.852
3782.87 -36.6148 -225.948
3785.79 10.3339 239.326
3788.72 -3.37475 -140.898
3791.64 30.3711 8.77624
3794.56 -13.154 -174.862
3797.49 5.56557 -61.6807
3800.41 8.04959 163.163
3803.33 16.4068 0.971681
3806.26 6.64597 276.186
3809.18 44.4212 106.346
3812.1 17.744 148.533
3815.03 12.4581 156.262
3817.95 27.9049 -66.1
3820.87 32.2887 215.819
3823.79 8.98772 -81.7903
3826.72 25.2952 106.242
3829.64 34.7512 152.308
3832.56 18.0211 159.225
3835.48 7.55899 50.2826
3838.41 5.33012 15.2366
3841.33 16.4105 -40.3481
3844.25 5.84417 297.261
3847.17 10.7288 -27.7636
3850.1 0.415387 -231.6
3853.02 -17.0506 -5.3774
3855.94 32.7281 39.6836
3858.86 13.1696 292.895
3861.78 -4.3089 8.37146
3864.71 26.9374 137.759
3867.63 8.00988 -142.662
3870.55 -3.09699 88.9676
3873.47 17.3087 272.733
3876.39 14.7852 -90.2611
3879.31 -21.4575 -100.986
3882.24 -29.7802 -116.209
3885.16 3.624 88.0902
3888.08 -22.5992 -127.234
3891 -28.5773 166.715
3893.92 16.9601 -70.9735
3896.84 -4.30849 11.5705
3899.77 -7.47177 313.987
3902.69 -3.96809 -369.712
3905.61 0.917004 56.2394
3908.53 15.7811 -60.6911
3911.45 7.89619 -24.6947
3914.37 -13.1942 -237.846
3917.29 -15.5784 247.156
3920.21 -9.10409 -178.198
3923.13 2.58532 254.925
3926.06 6.58992 44.7853
3928.98 28.9852 243.068
3931.9 18.9808 -265.077
3934.82 -8.24854 -30.5073
3937.74 4.52613 187.25
3940.66 -3.68689 54.8897
3943.58 1.58057 34.5004
3946.5 35.9461 29.9715
3949.42 -7.13497 192.845
3952.34 -7.21653 -95.0108
3955.26 1.23068 104.822
3958.18 -4.94341 -128.888
3961.1 8.3815 164.69
3964.02 17.7896 -82.9941
3966.94 15.9178 -88.7958
3969.86 8.62832 42.5108
3972.78 15.6303 -14.0272
3975.7 19.8143 -70.9314
3978.62 -6.25104 75.4965
3981.54 23.1153 148.906
3984.46 14.3467 -192.977
3987.38 19.6889 -147.911
3990.3 37.1327 122.744
3993.22 38.4377 27.2356
3996.14 24.0662 110.273
3999.06 8.66751 -245.006
4001.98 24.0485 -346.013
4004.9 35.8029 192.925
4007.82 44.4829 -201.186
4010.74 -4.35066 33.5254
4013.66 49.6354 15.9906
4016.58 12.0002 -398.308
4019.5 16.5827 -44.0963
4022.42 11.6729 130.731
4025.33 40.9522 65.378
4028.25 27.1481 -241.614
4031.17 29.755 7.17576
4034.09 22.2039 -187.054
4037.01 23.2963 93.3191
4039.93 24.4224 134.402
4042.85 30.3119 -171.712
4045.77 17.7001 283.085
4048.69 24.4766 -168.259
4051.6 40.7286 -99.7245
4054.52 25.8357 60.3264
4057.44 29.6815 -138.471
4060.36 7.8385 28.5068
4063.28 17.5112 99.4098
4066.2 20.9265 -200.084
4069.11 18.8159 51.7363
4072.03 26.9148 6.40778
4074.95 -0.392405 -77.2726
4077.87 35.3478 164.88
4080.79 16.4688 -59.0802
4083.7 34.1876 -109.96
4086.62 -8.47552 -128.914
4089.54 12.0973 260.582
4092.46 -2.91672 -273.818
4095.38 18.5149 -37.4349
4098.29 25.253 237.803
4101.21 29.071 -343.291
4104.13 4.53983 -42.4486
4107.05 10.9853 265.514
4109.96 5.76615 11.9008
4112.88 19.5574 -17.4466
4115.8 57.0833 127.705
4118.72 31.9383 -175.041
4121.63 23.9762 1.69361
4124.55 18.1735 34.5422
4127.47 24.8676 66.1032
4130.38 54.1925 38.7307
4133.3 23.5904 125.423
4136.22 41.1858 222.644
4139.14 59.7065 2.52348
4142.05 33.5699 112.894
4144.97 20.1661 -237.806
4147.89 49.6109 165.447
4150.8 41.3302 -41.3403
4153.72 21.044 -231.603
4156.64 35.1818 71.445
4159.55 39.9003 -109.574
4162.47 31.7821 -238.738
4165.39 41.3179 465.689
4168.3 31.3219 -75.9016
4171.22 38.5594 -37.8965
4174.13 31.6451 -143.864
4177.05 33.1313 -160.766
4179.97 9.51316 285.11
4182.88 34.5176 46.2137
4185.8 37.2256 131.016
4188.71 18.019 -109.11
4191.63 26.6499 -20.6389
4194.55 44.0623 -18.6455
4197.46 35.1571 -187.81
4200.38 41.6785 -55.4109
4203.29 25.9582 107.131
4206.21 48.0263 -17.1599
4209.12 36.2917 -93.7093
4212.04 43.8386 251.965
4214.96 22.5718 -72.4662
4217.87 29.4374 -317.948
4220.79 7.08489 84.4084
4223.7 20.5148 326.86
4226.62 36.046 -427.796
4229.53 26.3092 -138.144
4232.45 33.9002 44.027
4235.36 -1.17313 -16.9563
4238.28 24.987 -123.103
4241.19 14.3948 -111.914
4244.11 31.4235 28.382
4247.02 21.8965 288.196
4249.94 30.6103 -61.5444
4252.85 42.3987 68.9792
4255.76 46.0852 -10.5274
4258.68 14.4867 -62.9077
4261.59 16.9944 1.36436
4264.51 -0.699474 -103.258
4267.42 57.7479 -35.3369
4270.34 28.4692 -1.74999
4273.25 55.1096 78.3167
4276.16 22.0285 -252.352
4279.08 28.0466 53.145
4281.99 20.0097 -72.7568
4284.91 27.3184 75.9247
4287.82 27.8352 130.502
4290.73 31.2478 -234.948
4293.65 33.6762 204.688
4296.56 17.6452 -143.729
4299.48 1.5015 -112.02
4302.39 9.93228 -38.416
4305.3 8.18909 -64.5656
4308.22 25.8239 187.18
4311.13 11.3466 -95.8158
4314.04 -2.73597 54.3607
4316.96 9.65001 -337.914
4319.87 11.3522 272.467
4322.78 3.8723 -114.122
4325.7 -6.03907 -60.119
4328.61 9.63452 68.4693
4331.52 13.6287 -82.7017
4334.43 3.44888 -90.3565
4337.35 -1.7424 -108.965
4340.26 0.207407 129.459
4343.17 17.9194 -148.801
4346.09 7.79305 -77.2003
4349 6.66746 13.9808
4351.91 8.91187 -346.994
4354.82 22.0235 -25.8657
4357.74 25.3392 -5.96369
4360.65 18.1569 -14.4942
4363.56 5.49753 64.8433
4366.47 28.3242 -3.04279
4369.38 27.1526 56.3519
4372.3 38.1683 -122.627
4375.21 28.8036 37.825
4378.12 20.6029 -23.7216
4381.03 22.6979 -38.7695
4383.94 23.149 -61.1958
4386.86 21.7879 -56.1043
4389.77 43.7436 159.176
4392.68 30.472 -202.102
4395.59 46.8353 203.816
4398.5 26.8303 -283.965
4401.41 33.2482 80.8005
4404.33 13.7712 -7.63211
4407.24 23.4203 190.999
4410.15 17.7628 -219.302
4413.06 31.7943 -122.921
4415.97 24.6862 167.512
4418.88 36.364 98.2565
4421.79 17.0981 67.1803
4424.7 46.5077 3.01113
4427.61 27.4103 -139.62
4430.52 17.9635 -17.7778
4433.44 13.96 -19.2705
4436.35 21.79 157.141
4439.26 33.1027 -79.0276
4442.17 10.4274 286.839
4445.08 28.7762 2.11929
4447.99 21.5858 -31.0839
4450.9 18.064 -157.092
4453.81 42.2626 -39.2742
4456.72 22.1344 291.424
4459.63 41.3194 -36.3763
4462.54 26.693 -120.239
4465.45 31.7662 374.136
4468.36 12.6565 -296.959
4471.27 17.3512 40.5618
4474.18 14.8612 19.5794
4477.09 29.0863 82.5568
4480 39.6059 29.5377
4482.91 14.531 5.82487
4485.82 32.9174 214.336
4488.73 24.2073 -338.663
4491.64 26.5377 11.6701
4494.55 35.2462 246.436
4497.46 19.9177 -385.01
4500.36 22.6839 451.295
4503.27 19.7011 -131.205
4506.18 37.9184 -91.2234
4509.09 35.7306 -316.237
4512 31.9947 314.568
4514.91 14.534 -30.7932
4517.82 36.3224 32.3934
4520.73 35.1152 -34.595
4523.64 6.39352 -101.915
4526.54 18.347 25.2049
4529.45 25.5259 230.309
4532.36 47.1174 -295.471
4535.27 23.6327 175.503
4538.18 25.2282 -74.4144
4541.09 25.097 112.447
4543.99 41.6834 -139.074
4546.9 28.6005 185.762
4549.81 16.0554 17.1831
4552.72 2.02865 -132.571
4555.63 18.7684 266.191
4558.53 11.3525 -226.488
4561.44 37.9694 66.0713
4564.35 18.3931 -13.7267
4567.26 15.7066 9.71856
4570.17 14.7301 -42.3114
4573.07 30.715 116.731
4575.98 36.3052 -40.9742
4578.89 20.3036 -15.1117
4581.79 23.5033 58.6724
4584.7 34.2005 -9.33788
4587.61 23.7475 -24.3136
4590.52 20.1046 194.43
4593.42 36.228 183.045
4596.33 13.2907 -206.509
4599.24 37.5771 4.54803
4602.14 43.6124 59.3015
4605.05 23.1747 -102.3
4607.96 45.117 449.264
4610.86 29.736 -110.3
4613.77 30.1425 -238.822
4616.68 39.0052 -21.5798
4619.58 42.3314 220.055
4622.49 43.2227 -116.293
4625.4 23.6632 249.592
4628.3 31.2111 147.085
4631.21 36.3019 -127.461
4634.11 44.6029 -34.2845
4637.02 28.2383 152.694
4639.93 38.2928 203.88
4642.83 51.8259 -119.057
4645.74 40.688 36.1877
4648.64 50.8411 123.912
4651.55 36.075 189.662
4654.45 32.1001 19.7421
4657.36 31.5509 -24.1047
4660.27 44.7592 224.743
4663.17 20.0258 -139.118
4666.08 25.0162 -143.919
4668.98 43.1833 253.117
4671.89 41.1707 -116.073
4674.79 25.7115 368.617
4677.7 48.6573 5.18297
4680.6 22.4484 -83.2009
4683.51 23.7349 125.901
4686.41 33.3683 81.9565
4689.32 32.469 58.7548
4692.22 39.0339 124.446
4695.12 30.5623 109.763
4698.03 50.6678 -154.691
4700.93 39.7238 93.6641
4703.84 41.1306 34.9229
4706.74 31.5052 -175.311
4709.65 39.5727 3.50677
4712.55 33.0084 59.585
4715.45 27.6422 204.891
4718.36 30.3411 -86.2389
4721.26 26.7296 -130.106
4724.17 55.5338 70.4764
4727.07 32.8555 -230.611
4729.97 41.3341 48.7083
4732.88 40.839 282.636
4735.78 60.2432 141.034
4738.68 43.9078 207.041
4741.59 35.7357 -155.825
4744.49 26.5905 198.546
4747.39 30.1463 -131.033
4750.3 36.1639 249.835
4753.2 36.9453 51.087
4756.1 39.2952 249.017
4759 40.4855 59.6657
4761.91 34.1694 -7.9085
4764.81 31.4266 113.767
4767.71 16.1075 -217.488
4770.62 36.54 128.296
4773.52 16.9538 -0.051569
4776.42 28.8168 247.113
4779.32 32.1702 -252.321
4782.23 15.8155 111.577
4785.13 31.5636 119.944
4788.03 17.135 20.0417
4790.93 26.3213 -128.44
4793.83 30.7784 -10.0125
4796.74 15.6497 10.3076
4799.64 13.7005 335.304
4802.54 24.0336 -187.763
4805.44 14.932 169.403
4808.34 9.88154 295.062
4811.24 14.0209 -236.655
4814.15 13.315 -33.5591
4817.05 21.8408 200.613
4819.95 19.824 -179.929
4822.85 -3.25094 74.0851
4825.75 3.47924 -107.019
4828.65 17.4389 -107.063
4831.55 9.16452 96.5969
4834.45 5.81308 205.766
4837.35 9.47243 -170.003
4840.25 -8.44251 377.117
4843.16 24.481 72.4681
4846.06 -4.89259 -32.3958
4848.96 6.15172 8.73065
4851.86 10.7769 242.464
4854.76 9.85016 -289.822
4857.66 27.7651 272.528
4860.56 17.5784 40.9772
4863.46 15.4762 -301.483
4866.36 26.2413 231.879
4869.26 38.8028 -22.6467
4872.16 22.7087 29.2748
4875.06 41.917 331.78
4877.96 32.3573 -191.151
4880.86 40.5495 82.2761
4883.76 46.3123 197.334
4886.66 37.754 27.6593
4889.56 41.7788 126.064
4892.45 53.819 47.8804
4895.35 51.9557 59.9521
4898.25 33.7795 -112.957
4901.15 49.1946 251.082
4904.05 44.6258 -130.336
4906.95 45.5123 142.592
4909.85 46.2903 132.796
4912.75 48.5769 13.5
4915.65 44.7617 9.74811
4918.55 62.8219 337.048
4921.44 54.5768 -292.114
4924.34 53.6282 255.77
4927.24 60.2343 268.451
4930.14 61.5625 -3.34449
4933.04 45.1398 241.892
4935.94 51.117 36.5967
4938.83 46.6756 15.1132
4941.73 63.5707 439.086
4944.63 60.5286 -261.425
4947.53 53.3725 13.7108
4950.42 52.8054 386.152
4953.32 45.3449 -22.3831
4956.22 62.6262 114.274
4959.12 38.0987 -110.988
4962.01 41.6907 65.7617
4964.91 54.4743 86.5963
4967.81 42.4716 -97.103
4970.71 39.6748 131.354
4973.6 51.0756 126.335
4976.5 55.9654 23.1566
4979.4 33.5856 -96.8448
4982.29 41.1149 62.9602
4985.19 41.5064 218.868
4988.09 43.4186 211.525
4990.98 46.1232 150.614
4993.88 52.5676 -35.828
4996.78 47.9831 248.76
4999.67 58.4324 -42.1928
5002.57 34.8536 -127.623
5005.47 49.7418 490.164
5008.36 61.0077 164.577
5011.26 29.8491 -178.444
5014.15 34.6941 151.311
5017.05 42.3294 -3.19184
5019.94 27.3256 -186.836
5022.84 26.3356 55.8444
5025.74 25.0675 281.576
5028.63 32.8598 41.1451
5031.53 37.0213 225.766
5034.42 47.9809 34.5592
5037.32 37.9169 -128.43
5040.21 28.8794 -1.69512
5043.11 33.1012 123.115
5046 48.8309 317.489
5048.9 36.0951 -52.6093
5051.79 30.9783 -76.1085
5054.69 45.059 81.1021
5057.58 38.3911 207.278
5060.48 43.5892 90.3572
5063.37 36.4067 130.965
5066.26 37.4723 -12.9702
5069.16 27.0625 21.0626
5072.05 42.3516 401.344
5074.95 36.0065 -359.716
5077.84 56.0609 582.071
5080.74 26.4534 -428.138
5083.63 39.3283 155.558
5086.52 42.6269 231.442
5089.42 40.1995 17.5407
5092.31 49.1458 206.155
5095.2 33.4683 143.072
5098.1 39.0641 -94.2401
5100.99 42.85 59.7256
5103.88 33.187 239.796
5106.78 41.0696 -159.915
5109.67 45.7762 74.8838
5112.56 37.3898 265.293
5115.46 39.2815 137.674
5118.35 33.5442 223.952
5121.24 44.2303 -100.373
5124.13 37.9755 44.8109
5127.03 38.663 381.547
5129.92 47.3285 -20.3556
5132.81 32.1851 -280.962
5135.7 46.0323 230.281
5138.6 37.6648 -42.0221
5141.49 44.164 -122.803
5144.38 40.0563 396.954
5147.27 36.526 230.608
5150.16 35.2609 -165.482
5153.06 47.3409 -113.898
5155.95 28.1001 319.708
5158.84 34.7092 180.167
5161.73 29.9959 -83.9424
5164.62 27.2829 -1.57326
5167.51 26.9423 275.087
5170.4 27.8889 -125.968
5173.3 25.2503 -132.401
5176.19 23.3588 407.399
5179.08 26.2738 215.797
5181.97 17.7738 -460.431
5184.86 31.5799 348.875
5187.75 42.2428 48.008
5190.64 29.1053 38.6231
5193.53 37.6938 -89.1082
5196.42 33.2837 -18.5342
5199.31 33.5186 509.981
5202.2 21.9641 -331.911
5205.09 32.5325 274.064
5207.98 37.1236 140.62
5210.87 35.3677 -79.0052
5213.76 38.7169 -160.013
5216.65 30.8412 304.701
5219.54 37.1401 438.133
5222.43 39.2306 -397.452
5225.32 38.2044 129.995
5228.21 31.5444 520.389
5231.1 39.3676 -129.398
5233.99 29.1209 -261.401
5236.88 36.4279 307.427
5239.77 32.6968 345.214
5242.65 34.6812 -71.5786
5245.54 35.6341 70.3767
5248.43 37.5102 103.269
5251.32 40.7405 -228.391
5254.21 50.1132 418.539
5257.1 51.277 75.6584
5259.99 41.7037 132.068
5262.87 53.327 84.0166
5265.76 37.2035 -197.263
5268.65 46.1724 51.3822
5271.54 43.8456 511.002
5274.43 42.6125 -128.946
5277.31 38.4441 77.8708
5280.2 44.2197 32.8568
5283.09 46.8761 -256.793
5285.98 42.6361 156.503
5288.87 37.9285 96.0665
5291.75 40.7519 503.26
5294.64 48.6657 -80.0098
5297.53 48.2378 50.4032
5300.41 42.9734 -123.775
5303.3 30.3902 339.682
5306.19 37.7844 -53.1275
5309.07 39.4908 0.236438
5311.96 36.0469 99.3286
5314.85 30.7419 18.1419
5317.73 32.7632 143.008
5320.62 35.0191 126.128
5323.51 41.6166 161.777
5326.39 42.1905 -193.362
5329.28 38.3722 431.389
5332.17 39.0392 48.2937
5335.05 35.6219 -264.401
5337.94 47.4389 213.732
5340.82 35.9849 232.215
5343.71 34.8627 -151.184
5346.59 24.128 154.463
5349.48 44.7439 43.3804
5352.36 32.3326 182.426
5355.25 24.1461 88.8607
5358.14 40.8603 218.897
5361.02 36.7848 -65.509
5363.91 33.1757 -79.1111
5366.79 30.8839 437.824
5369.67 40.3715 -121.978
5372.56 37.9332 91.3291
5375.44 29.2397 -3.61934
5378.33 39.8478 265.791
5381.21 37.023 18.8083
5384.1 35.858 -10.9998
5386.98 38.9002 66.0702
5389.87 32.2271 382.812
5392.75 34.5223 26.1775
5395.63 34.6293 -256.225
5398.52 32.8204 196.296
5401.4 43.2161 265.526
5404.28 30.7058 -144.807
5407.17 47.5521 8.35644
5410.05 45.0531 300.084
5412.93 38.0052 -197.218
5415.82 31.7928 240.318
5418.7 28.9471 12.1188
5421.58 49.5379 201.037
5424.47 34.1308 120.236
5427.35 31.4787 5.54235
5430.23 26.5823 85.63
5433.11 31.3084 13.7856
5436 25.1636 261.334
5438.88 37.2923 214.229
5441.76 30.6669 -17.845
5444.64 34.3191 117.274
5447.53 37.2836 24.4997
5450.41 33.0111 -73.2409
5453.29 39.4803 294.894
5456.17 38.8212 282.833
5459.05 32.5394 -222.055
5461.94 33.4764 9.59733
5464.82 35.4883 194.427
5467.7 37.4439 328.056
5470.58 38.5963 -344.134
5473.46 26.9339 181.211
5476.34 31.8751 283.977
5479.22 35.7472 -68.622
5482.1 34.4269 55.704
5484.98 50.7181 124.132
5487.86 19.1881 147.717
5490.75 25.0972 -143.299
5493.63 26.2458 -70.8477
5496.51 33.0426 238.303
5499.39 38.9567 238.104
5502.27 33.7728 137.271
5505.15 37.2463 -96.6984
5508.03 31.9006 90.13
5510.91 31.1626 372.233
5513.79 29.6943 -249.833
5516.67 46.3416 -34.4683
5519.55 35.2097 347.638
5522.42 35.0742 303.904
5525.3 33.7728 -185.474
5528.18 39.1574 -62.506
5531.06 31.0036 337.456
5533.94 28.2678 -28.6811
5536.82 32.5881 -24.0721
5539.7 40.9743 -119.083
5542.58 39.3454 238.231
5545.46 29.8131 84.4388
5548.34 35.3514 122.186
5551.21 44.8317 117.341
5554.09 26.2494 -45.0393
5556.97 32.9728 69.0198
5559.85 33.4146 -140.86
5562.73 34.2664 510.672
5565.6 29.209 26.4391
5568.48 32.9343 -121.151
5571.36 28.1186 316.812
5574.24 41.7794 -145.838
5577.11 30.2888 111.612
5579.99 39.3295 312.06
5582.87 41.8133 182.588
5585.75 35.1709 115.453
5588.62 18.6285 -94.804
5591.5 42.9611 123.773
5594.38 18.5959 58.4356
5597.25 29.5556 73.1719
5600.13 23.6239 17.672
5603.01 28.1096 274.534
5605.88 26.9114 81.8038
5608.76 37.209 123.507
5611.64 34.7182 -64.0654
5614.51 35.3832 86.2163
5617.39 26.5123 -0.0764764
5620.26 38.6562 193.516
5623.14 33.001 86.8424
5626.01 28.0027 61.3003
5628.89 27.2617 -127.948
5631.77 35.6274 46.1881
5634.64 34.2033 124.532
5637.52 24.912 324.273
5640.39 32.9165 23.3563
5643.27 28.3456 56.3312
5646.14 25.1947 171.401
5649.02 36.1004 -45.7635
5651.89 34.5459 -123.03
5654.76 35.8685 258.093
5657.64 32.7963 103.712
5660.51 24.9333 265.596
5663.39 35.1789 56.026
5666.26 41.0147 -142.432
5669.14 31.9436 204.354
5672.01 26.5141 219.31
5674.88 31.8066 -97.2877
5677.76 44.3385 46.9626
5680.63 33.7514 142.106
5683.5 27.1914 169.7
5686.38 37.0705 -47.7318
5689.25 29.2731 127.87
5692.12 31.1119 127.142
5695 25.1937 -8.76178
5697.87 28.5959 229.917
5700.74 35.3592 -109.793
5703.62 31.0863 40.058
5706.49 32.0458 67.844
5709.36 32.4883 182.877
5712.23 33.8427 -146.08
5715.1 27.334 140.852
5717.98 36.9441 137.222
5720.85 32.5021 -84.7301
5723.72 33.0388 73.2354
5726.59 32.4847 307.706
5729.46 37.4756 85.0834
5732.34 28.1976 -68.9527
5735.21 29.0693 44.3839
5738.08 25.3957 162.271
5740.95 35.3369 -26.7582
5743.82 32.4537 175.09
5746.69 38.0534 -260.229
5749.56 28.4547 157.617
5752.43 33.3839 91.7254
5755.3 35.3455 114.965
5758.17 32.5531 271.742
5761.05 31.7128 107.516
5763.92 34.6952 -46.6177
5766.79 31.0022 297.332
5769.66 29.0703 195.892
5772.53 35.4063 -53.5965
5775.4 33.8421 -58.9576
5778.27 26.5131 178.287
5781.13 32.4994 17.0397
5784 35.5971 -21.2581
5786.87 33.8327 146.676
5789.74 35.0651 239.178
5792.61 26.2282 -116.045
5795.48 28.7018 24.9122
5798.35 37.7821 -74.9933
5801.22 29.8278 102.367
5804.09 41.6262 228.895
5806.96 30.4944 176.12
5809.82 33.561 -146.757
5812.69 34.4109 171.372
5815.56 28.3438 48.4174
