wavelength spectrum_sum 3smoothed_sum spectrum_optimal 3smoothed_optimal
3398.01 659.511 526.542 438.984 356.314
3400.93 920.116 881.223 629.958 603.572
3403.86 1064.04 1022.63 741.773 713.066
3406.79 1083.74 1112.49 767.467 772.817
3409.72 1189.68 1131.58 809.212 768.27
3412.65 1121.34 1135.85 728.133 756.609
3415.57 1096.54 1129.73 732.481 762.668
3418.5 1171.3 1147.61 827.39 785.696
3421.43 1174.98 1155.32 797.216 799.945
3424.36 1119.67 1175.11 775.228 813.412
3427.28 1230.68 1186.62 867.792 828.018
3430.21 1209.5 1173.91 841.033 846.781
3433.14 1081.56 1139.76 831.516 826.068
3436.07 1128.21 1199.87 805.654 879.208
3438.99 1389.84 1265.01 1000.45 910.94
3441.92 1276.99 1308.78 926.711 937.17
3444.85 1259.51 1283.17 884.345 897.831
3447.78 1313.02 1312.71 882.437 911.453
3450.7 1365.61 1329.16 967.576 918.464
3453.63 1308.85 1345.99 905.38 941.795
3456.56 1363.52 1328.63 952.43 950.524
3459.49 1313.54 1316.41 993.763 952.867
3462.41 1272.17 1322.94 912.409 969.862
3465.34 1383.11 1322.33 1003.41 956.905
3468.27 1311.71 1322.02 954.892 949.509
3471.19 1271.24 1274.82 890.221 906.04
3474.12 1241.5 1262.42 873.007 900.777
3477.05 1274.51 1295.43 939.104 944.467
3479.97 1370.27 1328.5 1021.29 970.411
3482.9 1340.71 1337.03 950.84 970.938
3485.83 1300.1 1323.59 940.685 954.902
3488.75 1329.97 1315.84 973.182 964.923
3491.68 1317.47 1316.34 980.904 981.661
3494.61 1301.59 1329.69 990.897 1000.88
3497.53 1370.02 1370.09 1030.83 1019.47
3500.46 1438.65 1391.18 1036.67 1018.9
3503.39 1364.87 1420.14 989.189 1028.83
3506.31 1456.91 1425.58 1060.63 1055.82
3509.24 1454.97 1528.5 1117.65 1142.22
3512.17 1673.61 1538.75 1248.37 1163.55
3515.09 1487.65 1544.88 1124.63 1139.31
3518.02 1473.38 1479.24 1044.94 1067.81
3520.94 1476.68 1505.01 1033.85 1082.77
3523.87 1564.98 1554.31 1169.51 1130.27
3526.8 1621.27 1591.8 1187.44 1178.26
3529.72 1589.15 1632.14 1177.83 1219.75
3532.65 1685.99 1669.6 1293.98 1243.46
3535.57 1733.66 1639.76 1258.56 1246.94
3538.5 1499.61 1621.65 1188.27 1223.85
3541.43 1631.69 1594.63 1224.73 1214.05
3544.35 1652.59 1628.36 1229.15 1227.21
3547.28 1600.8 1635.4 1227.74 1245.9
3550.2 1652.82 1613.54 1280.81 1221.78
3553.13 1586.99 1647.49 1156.8 1242.96
3556.05 1702.65 1679.25 1291.29 1235.17
3558.98 1748.11 1692.33 1257.44 1257.08
3561.91 1626.23 1643.53 1222.51 1219.29
3564.83 1556.24 1597.68 1177.93 1211.19
3567.76 1610.58 1601.01 1233.14 1229.11
3570.68 1636.22 1605.23 1276.26 1217.15
3573.61 1568.89 1609.05 1142.06 1225.11
3576.53 1622.05 1611.31 1257.02 1221.2
3579.46 1642.98 1650.28 1264.52 1279.98
3582.38 1685.82 1688.93 1318.4 1315.06
3585.31 1737.98 1724.69 1362.27 1343.17
3588.23 1750.28 1715.72 1348.82 1326.79
3591.16 1658.89 1732.88 1269.28 1334.93
3594.08 1789.46 1701.56 1386.7 1314.06
3597.01 1656.33 1721.89 1286.19 1343.46
3599.93 1719.88 1684.13 1357.5 1327.21
3602.86 1676.18 1734.23 1337.93 1368.34
3605.78 1806.64 1771.44 1409.59 1405.68
3608.71 1831.51 1799.42 1469.51 1415.53
3611.63 1760.1 1763.55 1367.5 1389.49
3614.56 1699.03 1771.35 1331.46 1368.64
3617.48 1854.93 1851.3 1406.96 1413.44
3620.41 1999.94 1880.07 1501.9 1436.48
3623.33 1785.35 1877.69 1400.57 1434.72
3626.25 1847.78 1818 1401.68 1425.63
3629.18 1820.87 1881.38 1474.65 1457.22
3632.1 1975.48 1954.11 1495.34 1534.37
3635.03 2065.97 1976.05 1633.11 1535.59
3637.95 1886.69 1957.56 1478.33 1525.97
3640.88 1920.03 1893.01 1466.47 1470.9
3643.8 1872.32 1975.29 1467.9 1534.72
3646.72 2133.52 2024.74 1669.79 1572.55
3649.65 2068.37 2078.9 1579.95 1592.68
3652.57 2034.82 2027.46 1528.31 1535.85
3655.5 1979.2 2005.23 1499.29 1519.43
3658.42 2001.66 2038.7 1530.69 1559.06
3661.34 2135.25 2073.13 1647.19 1582.28
3664.27 2082.5 2082.63 1568.98 1601.81
3667.19 2030.16 2051.37 1589.28 1550.85
3670.11 2041.46 2106.15 1494.28 1597.25
3673.04 2246.84 2148.56 1708.19 1598.27
3675.96 2157.4 2177.57 1592.35 1645.34
3678.89 2128.47 2128.87 1635.48 1632.36
3681.81 2100.74 2137 1669.24 1663.51
3684.73 2181.78 2178.26 1685.82 1715.61
3687.66 2252.27 2190.03 1791.77 1721.85
3690.58 2136.02 2176.5 1687.97 1725.06
3693.5 2141.19 2178.96 1695.45 1718.08
3696.43 2259.67 2252.97 1770.82 1764.57
3699.35 2358.05 2293.24 1827.44 1807.28
3702.27 2262 2394.34 1823.59 1920.01
3705.2 2562.98 2403.31 2108.99 1955.57
3708.12 2384.95 2452.4 1934.12 1975.58
3711.04 2409.25 2433.52 1883.64 1935.46
3713.96 2506.36 2458.64 1988.62 1962.06
3716.89 2460.29 2452.27 2013.92 1954.79
3719.81 2390.15 2435.86 1861.81 1961.83
3722.73 2457.13 2464.52 2009.76 1953.5
3725.66 2546.28 2481.09 1988.94 1997.5
3728.58 2439.85 2524.58 1993.81 1993.3
3731.5 2587.62 2563.32 1997.16 2050.63
3734.42 2662.49 2638.09 2160.93 2100.67
3737.35 2664.15 2687.88 2143.91 2152.47
3740.27 2737.01 2676.29 2152.56 2110.55
3743.19 2627.7 2678.37 2035.19 2122.99
3746.11 2670.39 2718.37 2181.22 2171.51
3749.04 2857 2776.32 2298.12 2235.44
3751.96 2801.57 2783.33 2226.98 2230
3754.88 2691.42 2747.95 2164.89 2181.28
3757.8 2750.88 2659.89 2151.95 2091.4
3760.72 2537.37 2648.18 1957.36 2073.88
3763.65 2656.3 2641.73 2112.33 2088.97
3766.57 2731.53 2660.35 2197.21 2132.72
3769.49 2593.21 2605.5 2088.61 2115.48
3772.41 2491.76 2529.24 2060.63 2064.8
3775.33 2502.76 2546.96 2045.16 2071.17
3778.26 2646.36 2609.46 2107.72 2088.45
3781.18 2679.27 2677.09 2112.47 2147.76
3784.1 2705.64 2653.71 2223.09 2145.67
3787.02 2576.21 2657.05 2101.45 2161.29
3789.94 2689.32 2654.57 2159.33 2138.87
3792.87 2698.2 2711.47 2155.83 2172.78
3795.79 2746.89 2774.12 2203.17 2227.93
3798.71 2877.28 2811.97 2324.8 2259.29
3801.63 2811.73 2888.85 2249.91 2319.81
3804.55 2977.56 2844.22 2384.73 2312.89
3807.47 2743.39 2864.08 2304.05 2358.04
3810.39 2871.28 2882.86 2385.35 2371.72
3813.32 3033.91 2985.56 2425.75 2429.64
3816.24 3051.48 3041.58 2477.82 2453.33
3819.16 3039.37 3012.21 2456.41 2452.48
3822.08 2945.79 2992.62 2423.2 2436.07
3825 2992.71 2977.54 2428.59 2422.78
3827.92 2994.11 2982.22 2416.54 2435.15
3830.84 2959.85 2971.8 2460.32 2443.06
3833.76 2961.44 2974.91 2452.32 2438.31
3836.68 3003.43 3002.73 2402.3 2445.06
3839.6 3043.33 3106.64 2480.55 2519.37
3842.52 3273.16 3162.71 2675.27 2577.09
3845.45 3171.63 3301.45 2575.45 2721.59
3848.37 3459.54 3306.69 2914.04 2759.57
3851.29 3288.89 3371.75 2789.22 2832.12
3854.21 3366.83 3331.09 2793.1 2799.15
3857.13 3337.54 3358.82 2815.12 2830.64
3860.05 3372.1 3383.49 2883.68 2817.76
3862.97 3440.83 3426.58 2754.46 2842.02
3865.89 3466.82 3449.97 2887.92 2818.62
3868.81 3442.26 3433.36 2813.48 2836.86
3871.73 3391.01 3341.54 2809.17 2763.31
3874.65 3191.35 3222.29 2667.3 2690.05
3877.57 3084.52 3102.62 2593.68 2592.36
3880.49 3031.98 2987.51 2516.12 2475.16
3883.41 2846.04 2871.06 2315.68 2387.53
3886.33 2735.15 2876.37 2330.78 2393.57
3889.25 3047.93 2904.61 2534.26 2444
3892.17 2930.75 3046.33 2466.96 2570.33
3895.09 3160.3 3094.35 2709.77 2649.98
3898.01 3192.01 3287.95 2773.21 2814.97
3900.93 3511.54 3409.86 2961.93 2902.5
3903.85 3526.03 3620.59 2972.37 3032.48
3906.77 3824.2 3644.43 3163.13 3069.48
3909.69 3583.05 3738.28 3072.94 3178.46
3912.61 3807.59 3823.51 3299.3 3265.08
3915.53 4079.88 3964.9 3422.98 3397.33
3918.45 4007.23 4128.84 3469.69 3507.35
3921.36 4299.41 4227.99 3629.38 3591.78
3924.28 4377.34 4341.74 3676.27 3685.83
3927.2 4348.49 4333.37 3751.85 3677.9
3930.12 4274.29 4286.85 3605.57 3666.22
3933.04 4237.78 4254.92 3641.23 3612.96
3935.96 4252.7 4217.28 3592.09 3591.13
3938.88 4161.36 4132.75 3540.08 3510.83
3941.8 3984.19 4024.34 3400.31 3415.84
3944.72 3927.47 3944.87 3307.13 3315.13
3947.64 3922.95 3881.03 3237.96 3265.25
3950.56 3792.67 3769.78 3250.66 3179.36
3953.47 3593.72 3559.69 3049.47 3006.44
3956.39 3292.67 3368.23 2719.19 2850.11
3959.31 3218.31 3184.13 2781.68 2679.62
3962.23 3041.41 3021.11 2537.98 2572.2
3965.15 2803.62 2887.59 2396.93 2440.44
3968.07 2817.74 2868.87 2386.39 2433.25
3970.99 2985.26 2966.71 2516.41 2529
3973.9 3097.13 3078.74 2684.18 2641.19
3976.82 3153.84 3199.99 2722.97 2813.07
3979.74 3349.01 3359.48 3032.07 2966.44
3982.66 3575.6 3516.57 3144.29 3083.21
3985.58 3625.11 3735.86 3073.25 3254.2
3988.49 4006.88 3885.43 3545.05 3351.69
3991.41 4024.3 4115.44 3436.77 3565.9
3994.33 4315.14 4249.93 3715.87 3655.7
3997.25 4410.36 4491.05 3814.46 3884.72
4000.17 4747.66 4694.49 4123.83 4029.6
4003.08 4925.46 4896.23 4150.5 4213.76
4006 5015.57 4968.75 4366.94 4295.85
4008.92 4965.22 5009.35 4370.1 4389.33
4011.84 5047.27 5019.79 4430.96 4400.9
4014.76 5046.88 5145.96 4401.64 4471.04
4017.67 5343.74 5306.04 4580.52 4547.74
4020.59 5527.5 5442.81 4661.04 4694.82
4023.51 5457.17 5555.03 4842.9 4791.08
4026.42 5680.43 5572.93 4869.29 4868.65
4029.34 5581.21 5632.7 4893.76 4872.26
4032.26 5636.46 5606.87 4853.74 4899.25
4035.18 5602.96 5629.89 4950.26 4939.12
4038.09 5650.25 5683.82 5013.36 4996.5
4041.01 5798.25 5631.02 5025.9 4958.7
4043.93 5444.57 5627.19 4836.86 4892.38
4046.85 5638.74 5545.51 4814.39 4854.67
4049.76 5553.23 5555.75 4912.75 4857.89
4052.68 5475.28 5498.6 4846.52 4838.23
4055.6 5467.27 5466.32 4755.4 4798.5
4058.51 5456.41 5405.98 4793.58 4669.99
4061.43 5294.25 5352.86 4460.97 4619.24
4064.35 5307.92 5160.72 4603.16 4465.04
4067.26 4880 5054.33 4330.99 4409.69
4070.18 4975.07 4945.5 4294.93 4331.88
4073.1 4981.44 4905.6 4369.73 4272.53
4076.01 4760.31 4810.15 4152.92 4210.44
4078.93 4688.69 4630.86 4108.66 4062.69
4081.84 4443.57 4435.73 3926.48 3897.64
4084.76 4174.94 4154.12 3657.77 3660.54
4087.68 3843.84 3881.18 3397.37 3383.01
4090.59 3624.75 3637.45 3093.89 3165.86
4093.51 3443.77 3437.11 3006.31 2925.35
4096.43 3242.82 3247.34 2675.86 2761.96
4099.34 3055.44 3176.44 2603.71 2693.05
4102.26 3231.07 3204.77 2799.57 2784.49
4105.17 3327.8 3281.34 2950.2 2880.97
4108.09 3285.15 3435.87 2893.15 3046.4
4111.01 3694.65 3610.41 3295.86 3195.56
4113.92 3851.42 3831.71 3397.68 3437.57
4116.84 3949.06 3987.8 3619.17 3576.39
4119.75 4162.92 4200.81 3712.32 3784.73
4122.67 4490.45 4475.73 4022.7 3963.91
4125.58 4773.81 4657.78 4156.72 4102.78
4128.5 4709.07 4767.81 4128.92 4231.02
4131.41 4820.55 4870.59 4407.41 4371.04
4134.33 5082.13 5044.65 4576.79 4616.25
4137.24 5231.28 5267.3 4864.56 4781.68
4140.16 5488.48 5476.23 4903.7 4962.21
4143.07 5708.92 5622.49 5118.38 5056.5
4145.99 5670.08 5767.47 5147.43 5247.49
4148.91 5923.4 5868.4 5476.65 5360.7
4151.82 6011.72 6062.72 5458.03 5535.02
4154.73 6253.05 6156.52 5670.38 5590.32
4157.65 6204.79 6297.53 5642.54 5723.38
4160.56 6434.75 6320.93 5857.23 5719.38
4163.48 6323.26 6510.11 5658.36 5852.34
4166.39 6772.32 6650.75 6041.43 5982.97
4169.31 6856.67 6842.37 6249.12 6142.78
4172.22 6898.12 6891.76 6137.79 6189.13
4175.14 6920.49 6970.74 6180.49 6226.9
4178.05 7093.6 6974.88 6362.44 6301
4180.97 6910.54 7005.01 6360.08 6357.71
4183.88 7010.88 7011.34 6350.62 6428.76
4186.8 7112.59 7114.73 6575.58 6482.85
4189.71 7220.74 7243.56 6522.36 6609.5
4192.62 7397.37 7274.17 6730.56 6652.09
4195.54 7204.41 7275.56 6703.36 6655.33
4198.45 7224.9 7272.38 6532.08 6688.12
4201.37 7387.81 7358.93 6828.92 6708.9
4204.28 7464.08 7396.46 6765.71 6774.59
4207.19 7337.49 7483.33 6729.14 6806.69
4210.11 7648.43 7457.35 6925.23 6814.27
4213.02 7386.12 7559.89 6788.45 6867.46
4215.93 7645.13 7427.28 6888.71 6766.25
4218.85 7250.58 7489.76 6621.59 6819.05
4221.76 7573.58 7471.96 6946.86 6815.92
4224.68 7591.73 7664.48 6879.3 6946.21
4227.59 7828.12 7608.62 7012.47 6916.56
4230.5 7406.02 7532.31 6857.91 6925.16
4233.42 7362.8 7428.79 6905.1 6897.12
4236.33 7517.55 7475.6 6928.35 6936.35
4239.24 7546.43 7514 6975.6 6918.43
4242.16 7478.02 7458.04 6851.34 6852.59
4245.07 7349.66 7510.61 6730.85 6907.29
4247.98 7704.16 7547.39 7139.69 6945.66
4250.89 7588.34 7604.67 6966.45 7004.4
4253.81 7521.5 7570.04 6907.05 6904.16
4256.72 7600.27 7513.3 6838.98 6867.34
4259.63 7418.14 7550.44 6855.99 6865.57
4262.55 7632.9 7534.64 6901.73 6869.02
4265.46 7552.88 7546.25 6849.34 6854.75
4268.37 7452.95 7472.33 6813.19 6856.35
4271.28 7411.15 7331.95 6906.52 6792.16
4274.2 7131.74 7239.54 6656.77 6753.49
4277.11 7175.72 7147.73 6697.18 6648.93
4280.02 7135.73 7167.86 6592.85 6646.65
4282.93 7192.14 7133.56 6649.93 6565.79
4285.85 7072.81 7036.89 6454.59 6474.9
4288.76 6845.72 6859.2 6320.18 6318.17
4291.67 6659.08 6685.03 6179.75 6218.72
4294.58 6550.29 6556.48 6156.23 6125.62
4297.49 6460.08 6478.07 6040.89 6082.65
4300.41 6423.85 6375.16 6050.83 5933.55
4303.32 6241.57 6236.87 5708.94 5781.18
4306.23 6045.2 5998.88 5583.79 5547.33
4309.14 5709.86 5820.43 5349.26 5454.3
4312.05 5706.22 5659.7 5429.84 5300.35
4314.97 5563.02 5524.09 5121.96 5096.01
4317.88 5303.04 5357.48 4736.24 4867.03
4320.79 5206.39 5153.66 4742.9 4656.03
4323.7 4951.56 4952.51 4488.94 4503.23
4326.61 4699.57 4698.28 4277.85 4235.82
4329.52 4443.72 4443.11 3940.68 3949.17
4332.43 4186.05 4166.2 3628.99 3649.61
4335.35 3868.82 3921.29 3379.15 3474.27
4338.26 3709 3784.05 3414.66 3391.23
4341.17 3774.34 3765.15 3379.88 3400
4344.08 3812.1 3760.99 3405.46 3464.19
4346.99 3696.53 3938.65 3607.21 3661.47
4349.9 4307.33 4062.36 3971.74 3876
4352.81 4183.22 4412.66 4049.05 4117.71
4355.72 4747.43 4593.52 4332.34 4319.89
4358.63 4849.91 4826.53 4578.28 4526.37
4361.54 4882.24 4961.51 4668.49 4703.41
4364.45 5152.38 5139 4863.45 4903.85
4367.36 5382.37 5396.92 5179.62 5175.13
4370.28 5655.99 5614.41 5482.31 5412.26
4373.19 5804.86 5799.72 5574.85 5553.05
4376.1 5938.32 5970.74 5602 5685.4
4379.01 6169.03 6133.46 5879.34 5852.61
4381.92 6293.02 6310.94 6076.5 6051.01
4384.83 6470.78 6493.11 6197.21 6233.54
4387.74 6715.54 6634.78 6426.92 6327.94
4390.65 6718.01 6736.07 6359.69 6413
4393.56 6774.66 6875.88 6452.38 6519.1
4396.47 7134.97 7026.75 6745.21 6670.04
4399.38 7170.63 7183.15 6812.51 6852.4
4402.29 7243.85 7279.53 6999.49 6960.58
4405.2 7424.11 7365.93 7069.73 7086.09
4408.11 7429.81 7460.02 7189.05 7171.01
4411.02 7526.15 7512.42 7254.24 7254.54
4413.93 7581.31 7609.47 7320.32 7325.52
4416.83 7720.96 7677.65 7402 7349.37
4419.74 7730.68 7713.87 7325.79 7404.87
4422.65 7689.97 7721.78 7486.84 7424.04
4425.56 7744.69 7726.97 7459.5 7490.6
4428.47 7746.23 7829.46 7525.46 7520.86
4431.38 7997.46 7904.45 7577.63 7608.56
4434.29 7969.65 7955.82 7722.6 7668.4
4437.2 7900.36 7969.99 7704.97 7720.59
4440.11 8039.97 7999.78 7734.18 7741.28
4443.02 8059.01 8033.73 7784.68 7769.7
4445.93 8002.2 7965.46 7790.23 7721.59
4448.84 7835.16 8019.33 7589.87 7769.09
4451.74 8220.63 8076.6 7927.17 7806.13
4454.65 8174.02 8143.73 7901.34 7892.84
4457.56 8036.53 8109.93 7850.01 7895.1
4460.47 8119.25 8118.14 7933.94 7915.73
4463.38 8198.65 8195.73 7963.25 7931.66
4466.29 8269.29 8264.94 7897.78 7982.7
4469.19 8326.89 8196.11 8087.08 7913.65
4472.1 7992.14 8110.22 7756.09 7923.87
4475.01 8011.61 8000.38 7928.43 7829.41
4477.92 7997.39 8082.31 7803.72 7910.63
4480.83 8237.94 8193.12 7999.75 8010.03
4483.74 8344.03 8301.69 8226.62 8110.37
4486.64 8323.11 8367.09 8104.73 8168.1
4489.55 8434.12 8418.35 8172.94 8151.76
4492.46 8497.82 8433.72 8177.62 8167.1
4495.37 8369.22 8474.82 8150.75 8258.31
4498.27 8557.42 8465.66 8446.57 8293.33
4501.18 8470.34 8417.58 8282.66 8297.14
4504.09 8224.98 8366.78 8162.19 8206.78
4507 8405.03 8393.78 8175.5 8187.83
4509.9 8551.33 8482.46 8225.8 8209.59
4512.81 8491.02 8502.66 8227.46 8237.76
4515.72 8465.63 8401.46 8260 8244.85
4518.63 8247.72 8429.22 8247.09 8323.38
4521.53 8574.3 8408.87 8463.05 8344.86
4524.44 8404.59 8487.6 8324.45 8401.94
4527.35 8483.9 8360.47 8418.33 8305.16
4530.26 8192.91 8404.61 8172.7 8300.65
4533.16 8537.01 8356.73 8310.91 8206.79
4536.07 8340.28 8398.54 8136.76 8275.83
4538.98 8318.33 8308.06 8379.81 8194.83
4541.88 8265.57 8299.86 8067.9 8205.68
4544.79 8315.68 8309.3 8169.32 8222.04
4547.7 8346.65 8359.17 8428.89 8342.09
4550.6 8415.19 8379.17 8428.06 8358.76
4553.51 8375.67 8399.2 8219.32 8348.14
4556.41 8406.75 8470.69 8397.04 8357.58
4559.32 8629.65 8472.13 8456.38 8397.35
4562.23 8380.01 8451.84 8338.64 8335.65
4565.13 8345.85 8377.55 8211.93 8291.55
4568.04 8406.8 8412.58 8324.08 8304.56
4570.95 8485.1 8442.46 8377.66 8392.94
4573.85 8435.49 8490.51 8477.08 8414.31
4576.76 8550.95 8549.7 8388.18 8472.82
4579.66 8662.66 8507.93 8553.21 8438.14
4582.57 8310.19 8481.59 8373.05 8505.44
4585.47 8471.9 8426.71 8590.07 8418.47
4588.38 8498.03 8388.51 8292.3 8387.9
4591.29 8195.59 8401.48 8281.33 8347.57
4594.19 8510.83 8526.16 8469.06 8430.85
4597.1 8872.07 8596.23 8542.17 8462.28
4600 8405.77 8597.49 8375.62 8441.49
4602.91 8514.64 8533.69 8406.67 8514.75
4605.81 8680.66 8568.11 8761.94 8527.09
4608.72 8509.04 8532.36 8412.67 8560.37
4611.62 8407.37 8489.69 8506.49 8437.82
4614.53 8552.64 8468.07 8394.31 8483.84
4617.43 8444.2 8409.26 8550.74 8460.88
4620.34 8230.95 8370.23 8437.61 8489.26
4623.24 8435.55 8384.04 8479.44 8442.46
4626.15 8485.61 8383.3 8410.32 8421.18
4629.05 8228.73 8408.47 8373.78 8441.7
4631.96 8511.08 8406.57 8540.99 8455.66
4634.86 8479.89 8466.3 8452.2 8551.72
4637.77 8407.92 8438.21 8661.99 8547.78
4640.67 8426.8 8359.48 8529.15 8539.15
4643.57 8243.71 8282.53 8426.31 8403.17
4646.48 8177.08 8292.82 8254.05 8410.17
4649.38 8457.66 8326.8 8550.15 8439.06
4652.29 8345.67 8471.61 8512.98 8547.35
4655.19 8611.5 8550.71 8578.92 8634.62
4658.09 8694.96 8584.49 8811.95 8697.12
4661 8447.01 8551.9 8700.5 8762.61
4663.9 8513.73 8515.26 8775.39 8734.09
4666.81 8585.03 8522.22 8726.39 8693.34
4669.71 8467.9 8544.08 8578.24 8660.73
4672.61 8579.3 8520.62 8677.56 8616.22
4675.52 8514.66 8517.67 8592.87 8730.28
4678.42 8459.04 8395.91 8920.41 8669.42
4681.32 8214.03 8292.07 8494.97 8638.4
4684.23 8203.15 8364.28 8499.81 8568.03
4687.13 8675.67 8424.23 8709.29 8603.76
4690.03 8393.87 8476.52 8602.17 8631.31
4692.94 8360.03 8358.35 8582.47 8562.77
4695.84 8321.16 8329.25 8503.68 8529.9
4698.74 8306.57 8325.3 8503.56 8555.63
4701.65 8348.16 8440.4 8659.64 8688.95
4704.55 8666.46 8413.93 8903.67 8693.26
4707.45 8227.16 8406.23 8516.49 8710.3
4710.35 8325.07 8401.76 8710.76 8685.02
4713.26 8653.05 8421.67 8827.82 8738.12
4716.16 8286.9 8365.87 8675.77 8705.33
4719.06 8157.65 8310.33 8612.39 8656.42
4721.96 8486.43 8308.11 8681.1 8575.35
4724.87 8280.25 8295.7 8432.56 8580.58
4727.77 8120.41 8167.02 8628.09 8526.61
4730.67 8100.41 8163.95 8519.19 8557.61
4733.57 8271.03 8149.91 8525.55 8443.18
4736.48 8078.29 8068.77 8284.8 8345.81
4739.38 7857 8028.54 8227.08 8338.33
4742.28 8150.34 8014.75 8503.1 8372.79
4745.18 8036.91 8045.07 8388.2 8403.58
4748.08 7947.97 7971.63 8319.43 8312.71
4750.98 7930.02 7924.38 8230.5 8280.16
4753.89 7895.14 7885.45 8290.54 8243.69
4756.79 7831.2 7868.66 8210.03 8194.62
4759.69 7879.62 7890.03 8083.28 8209.09
4762.59 7959.27 7868.66 8333.96 8203.74
4765.49 7767.1 7809.91 8193.97 8163.28
4768.39 7703.35 7703.1 7961.9 8029.99
4771.29 7638.84 7576.62 7934.08 7945.26
4774.2 7387.66 7536.55 7939.79 7974.79
4777.1 7583.17 7533.66 8050.51 8040.98
4780 7630.16 7548.18 8132.65 7953.5
4782.9 7431.23 7485.33 7677.34 7830.45
4785.8 7394.59 7445.62 7681.36 7753.37
4788.7 7511.04 7350.3 7901.4 7709.93
4791.6 7145.27 7284 7547.04 7655.74
4794.5 7195.68 7077.47 7518.78 7471.53
4797.4 6891.46 6971.15 7348.77 7356.64
4800.3 6826.31 6951.72 7202.37 7275.1
4803.2 7137.39 7010.54 7274.17 7280.88
4806.1 7067.92 6985.98 7366.12 7240.27
4809 6752.64 6812.05 7080.52 7120.57
4811.9 6615.57 6555.56 6915.06 6950.13
4814.8 6298.46 6433.82 6854.81 6774.87
4817.7 6387.42 6418.14 6554.73 6693.73
4820.6 6568.53 6324.97 6671.66 6519.56
4823.5 6018.98 6138.82 6332.27 6421.93
4826.4 5828.97 5932.32 6261.87 6225.68
4829.3 5949.02 5775.78 6082.91 6066.54
4832.2 5549.35 5650.77 5854.84 5930.38
4835.1 5453.93 5428.19 5853.38 5761.76
4838 5281.28 5213.09 5577.05 5636.59
4840.9 4904.06 5110.59 5479.33 5466.48
4843.8 5146.42 4991.88 5343.06 5313.01
4846.7 4925.15 4869.33 5116.63 5125
4849.6 4536.43 4673.55 4915.31 4936.9
4852.5 4559.09 4351.46 4778.75 4642.8
4855.4 3958.85 4137.47 4234.33 4359.32
4858.3 3894.48 3881.01 4064.87 4065.09
4861.19 3789.69 3790.44 3896.06 3992.11
4864.09 3687.15 3757.01 4015.39 4053.13
4866.99 3794.18 3860.73 4247.93 4306.2
4869.89 4100.86 4103.99 4655.27 4516.11
