wavelength spec_sum spec_optimal
3418.5 1065.92 752.954
3421.43 1049.25 711.91
3424.36 983.121 680.685
3427.28 1064.46 750.583
3430.21 1032.09 717.673
3433.14 911.801 701.003
3436.07 940.812 671.833
3438.99 1147.66 826.119
3441.92 1045.06 758.402
3444.85 1022.33 717.81
3447.78 1057.68 710.832
3450.7 1092.24 773.888
3453.63 1039.75 719.232
3456.56 1076.06 751.636
3459.49 1029.89 779.167
3462.41 990.969 710.73
3465.34 1070.19 776.396
3468.27 1007.9 733.723
3471.19 969.671 679.039
3474.12 939.592 660.709
3477.05 956.502 704.784
3479.97 1019.25 759.671
3482.9 987.939 700.652
3485.83 948.669 686.408
3488.75 960.702 702.977
3491.68 941.797 701.202
3494.61 920.578 700.834
3497.53 958.569 721.246
3500.46 995.617 717.427
3503.39 934.195 677.057
3506.31 986.265 718
3509.24 974.143 748.297
3512.17 1108.3 826.7
3515.09 974.55 736.738
3518.02 954.916 677.239
3520.94 947.067 663.058
3523.87 993.409 742.375
3526.8 1018.85 746.223
3529.72 989.011 733.025
3532.65 1039.44 797.756
3535.57 1059.21 768.939
3538.5 908.295 719.72
3541.43 980.164 735.701
3544.35 985.02 732.63
3547.28 947.177 726.441
3550.2 971.309 752.691
3553.13 926.679 675.481
3556.05 988.29 749.519
3558.98 1008.96 725.756
3561.91 933.593 701.824
3564.83 888.87 672.793
3567.76 915.393 700.87
3570.68 925.555 721.937
3573.61 883.336 643.017
3576.53 909.08 704.498
3579.46 916.587 705.451
3582.38 936.159 732.126
3585.31 960.599 752.94
3588.23 962.765 741.937
3591.16 907.969 694.722
3594.08 974.402 755.09
3597.01 897.049 696.585
3599.93 926.21 731.057
3602.86 897.286 716.215
3605.78 961.034 749.825
3608.71 967.74 776.465
3611.63 923.419 717.445
3614.56 884.647 693.262
3617.48 958.097 726.714
3620.41 1024.19 769.138
3623.33 906.057 710.783
3626.25 928.836 704.592
3629.18 906.182 733.881
3632.1 972.958 736.481
3635.03 1006.59 795.693
3637.95 909.099 712.332
3640.88 914.65 698.586
3643.8 881.593 691.169
3646.72 992.724 776.951
3649.65 950.831 726.304
3652.57 924.047 694.032
3655.5 887.721 672.469
3658.42 886.691 678.062
3661.34 934.105 720.594
3664.27 899.621 677.785
3667.19 866.052 677.976
3670.11 859.998 629.489
3673.04 934.686 710.608
3675.96 886.347 654.201
3678.89 863.642 663.607
3681.81 841.959 669.017
3684.73 863.836 667.469
3687.66 881.011 700.879
3690.58 825.638 652.453
3693.5 817.964 647.685
3696.43 853.256 668.666
3699.35 880.323 682.232
3702.27 835.066 673.218
3705.2 935.803 770.041
3708.12 861.463 698.619
3711.04 861.094 673.235
3713.96 886.584 703.442
3716.89 861.499 705.197
3719.81 828.708 645.523
3722.73 843.755 690.132
3725.66 866.16 676.572
3728.58 822.397 672.051
3731.5 864.481 667.218
3734.42 881.844 715.722
3737.35 875.011 704.144
3740.27 891.686 701.279
3743.19 849.398 657.87
3746.11 856.703 699.769
3749.04 909.91 731.915
3751.96 886.05 704.325
3754.88 845.539 680.124
3757.8 858.713 671.752
3760.72 787.256 607.3
3763.65 819.389 651.59
3766.57 838 674.077
3769.49 791.471 637.462
3772.41 756.801 625.858
3775.33 756.614 618.276
3778.26 796.453 634.343
3781.18 802.891 633.039
3784.1 807.398 663.399
3787.02 765.611 624.52
3789.94 795.965 639.103
3792.87 795.323 635.454
3795.79 806.34 646.733
3798.71 841.072 679.574
3801.63 818.373 654.852
3804.55 862.783 691.004
3807.47 791.251 664.536
3810.39 824.129 684.655
3813.32 866.365 692.698
3816.24 866.71 703.774
3819.16 858.377 693.738
3822.08 826.953 680.25
3825 834.774 677.42
3827.92 829.517 669.502
3830.84 814.138 676.737
3833.76 808.367 669.396
3836.68 813.199 650.439
3839.6 816.937 665.867
3842.52 870.665 711.626
3845.45 835.613 678.541
3848.37 902.471 760.17
3851.29 849.229 720.209
3854.21 860.309 713.707
3857.13 843.804 711.725
3860.05 843.429 721.265
3862.97 851.373 681.543
3865.89 848.588 706.889
3868.81 833.57 681.306
3871.73 812.468 673.062
3874.65 756.654 632.404
3877.57 723.842 608.657
3880.49 704.407 584.559
3883.41 654.794 532.773
3886.33 623.385 531.222
3889.25 688.419 572.399
3892.17 656.264 552.41
3895.09 701.899 601.837
3898.01 703.509 611.206
3900.93 768.403 648.136
3903.85 766.49 646.135
3906.77 826.321 683.479
3909.69 770.058 660.427
3912.61 814.467 705.741
3915.53 869.205 729.254
3918.45 850.839 736.705
3921.36 910.318 768.452
3924.28 924.682 776.586
3927.2 916.883 791.081
3930.12 899.914 759.121
3933.04 891.209 765.754
3935.96 893.567 754.761
3938.88 873.797 743.341
3941.8 836.169 713.629
3944.72 823.923 693.785
3947.64 822.663 679.017
3950.56 795.025 681.408
3953.47 752.961 638.929
3956.39 689.459 569.377
3959.31 673.343 581.99
3962.23 635.656 530.439
3965.15 585.155 500.273
3968.07 587.082 497.21
3970.99 620.646 523.171
3973.9 642.22 556.591
3976.82 651.919 562.855
3979.74 689.681 624.412
3982.66 733.137 644.702
3985.58 739.55 626.966
3988.49 812.767 719.088
3991.41 811.099 692.682
3994.33 863.678 743.733
3997.25 876.164 757.782
4000.17 935.747 812.792
4003.08 962.828 811.339
4006 972.089 846.375
4008.92 953.915 839.58
4011.84 961.043 843.692
4014.76 952.316 830.563
4017.67 999.246 856.528
4020.59 1024.28 863.721
4023.51 1002.2 889.391
4026.42 1034.03 886.377
4029.34 1007.19 883.135
4032.26 1008.61 868.548
4035.18 994.465 878.618
4038.09 995.059 882.897
4041.01 1013.53 878.527
4043.93 945.033 839.551
4046.85 972.32 830.173
4049.76 951.8 842.024
4052.68 933.273 826.1
4055.6 927.328 806.584
4058.51 921.536 809.59
4061.43 890.908 750.685
4064.35 890.522 772.282
4067.26 816.73 724.846
4070.18 831.019 717.411
4073.1 830.835 728.81
4076.01 793.076 691.884
4078.93 780.542 683.983
4081.84 739.379 653.339
4084.76 694.505 608.473
4087.68 639.38 565.114
4090.59 602.969 514.662
4093.51 572.938 500.158
4096.43 539.587 445.248
4099.34 508.469 433.295
4102.26 537.717 465.907
4105.17 553.761 490.927
4108.09 546.508 481.296
4111.01 614.307 548.001
4113.92 639.851 564.469
4116.84 655.309 600.567
4119.75 689.725 615.069
4122.67 742.502 665.159
4125.58 787.393 685.61
4128.5 774.355 678.956
4131.41 789.823 722.132
4134.33 829.148 746.702
4137.24 849.373 789.831
4140.16 886.347 791.909
4143.07 916.556 821.746
4145.99 904.57 821.189
4148.91 938.631 867.838
4151.82 945.903 858.783
4154.73 976.62 885.617
4157.65 961.648 874.508
4160.56 989.433 900.631
4163.48 964.419 863.009
4166.39 1024.42 913.862
4169.31 1028.51 937.376
4172.22 1026.03 912.937
4175.14 1020.63 911.497
4178.05 1037.32 930.401
4180.97 1002.01 922.197
4183.88 1008.06 913.127
4186.8 1014.2 937.629
4189.71 1021.24 922.466
4192.62 1037.86 944.305
4195.54 1002.87 933.118
4198.45 998.073 902.364
4201.37 1013.03 936.398
4204.28 1016.22 921.141
4207.19 992.174 909.913
4210.11 1027.43 930.285
4213.02 985.989 906.204
4215.93 1014.46 914.087
4218.85 956.591 873.607
4221.76 993.768 911.533
4224.68 990.976 897.979
4227.59 1016.81 910.865
4230.5 957.508 886.644
4233.42 947.722 888.808
4236.33 963.636 888.109
4239.24 963.579 890.692
4242.16 951.363 871.636
4245.07 931.869 853.41
4247.98 973.755 902.41
4250.89 956.348 877.972
4253.81 945.414 868.181
4256.72 953.029 857.567
4259.63 928.193 857.854
4262.55 953.241 861.928
4265.46 941.684 853.967
4268.37 927.911 848.26
4271.28 921.629 858.874
4274.2 886.06 827.049
4277.11 890.919 831.505
4280.02 885.567 818.194
4282.93 892.371 825.095
4285.85 877.536 800.832
4288.76 849.469 784.256
4291.67 826.522 767.028
4294.58 813.312 764.384
4297.49 802.459 750.388
4300.41 798.342 751.984
4303.32 776.072 709.845
4306.23 752.018 694.619
4309.14 710.614 665.736
4312.05 710.424 676.015
4314.97 692.784 637.857
4317.88 660.501 589.906
4320.79 648.454 590.726
4323.7 616.591 558.984
4326.61 584.969 532.477
4329.52 552.759 490.185
4332.43 520.224 450.995
4335.35 480.207 419.428
4338.26 459.654 423.177
4341.17 466.859 418.067
4344.08 470.451 420.268
4346.99 454.96 443.967
4349.9 528.48 487.306
4352.81 511.422 495.019
4355.72 578.091 527.546
4358.63 588 555.068
4361.54 589.149 563.355
4364.45 618.655 583.963
4367.36 642.894 618.677
4370.28 671.892 651.26
4373.19 685.709 658.538
4376.1 697.444 657.944
4379.01 720.307 686.482
4381.92 730.445 705.313
4384.83 746.623 715.058
4387.74 770.274 737.17
4390.65 766.025 725.167
4393.56 767.998 731.463
4396.47 804.233 760.3
4399.38 803.756 763.614
4402.29 807.584 780.341
4405.2 823.381 784.078
4408.11 819.921 793.352
4411.02 826.643 796.778
4413.93 829.021 800.482
4416.83 840.838 806.103
4419.74 838.73 794.802
4422.65 831.486 809.522
4425.56 834.893 804.149
4428.47 832.867 809.13
4431.38 857.921 812.884
4434.29 853.264 826.814
4437.2 844.439 823.555
4440.11 858.165 825.525
4443.02 859.209 829.961
4445.93 852.36 829.782
4448.84 833.956 807.847
4451.74 874.494 843.276
4454.65 869.175 840.18
4457.56 854.305 834.478
4460.47 862.933 843.238
4463.38 871.27 846.254
4466.29 878.72 839.242
4469.19 884.808 859.326
4472.1 849.209 824.128
4475.01 851.233 842.395
4477.92 849.641 829.065
4480.83 875.054 849.753
4483.74 886.098 873.629
4486.64 883.551 860.369
4489.55 894.882 867.17
4492.46 901.038 867.087
4495.37 886.645 863.5
4498.27 905.629 893.898
4501.18 895.289 875.452
4504.09 868.101 861.474
4507 885.666 861.48
4509.9 899.475 865.234
4512.81 891.391 863.723
4515.72 886.862 865.321
4518.63 862.103 862.037
4521.53 894.127 882.526
4524.44 874.254 865.918
4527.35 880.218 873.415
4530.26 847.74 845.649
4533.16 880.898 857.567
4536.07 858.137 837.197
4538.98 853.371 859.679
4541.88 845.432 825.214
4544.79 847.97 833.046
4547.7 848.504 856.864
4550.6 852.815 854.119
4553.51 846.144 830.349
4556.41 846.613 845.636
4559.32 866.313 848.919
4562.23 838.595 834.455
4565.13 832.557 819.197
4568.04 836.014 827.787
4570.95 841.184 830.532
4573.85 833.707 837.818
4576.76 842.555 826.516
4579.66 851.013 840.261
4582.57 813.976 820.133
4585.47 827.41 838.951
4588.38 827.589 807.554
4591.29 795.895 804.222
4594.19 824.243 820.197
4597.1 856.913 825.05
4600 809.747 806.843
4602.91 818.13 807.756
4605.81 832.007 839.797
4608.72 813.579 804.365
4611.62 801.975 811.43
4614.53 813.978 798.909
4617.43 801.902 812.019
4620.34 780.003 799.587
4623.24 797.783 801.933
4626.15 800.968 793.861
4629.05 775.299 788.966
4631.96 800.507 803.32
4634.86 796.27 793.67
4637.77 788.298 812.119
4640.67 788.942 798.524
4643.57 770.782 787.855
4646.48 763.612 770.799
4649.38 788.909 797.537
4652.29 777.621 793.211
4655.19 801.568 798.535
4658.09 808.539 819.417
4661 784.725 808.274
4663.9 790.173 814.458
4666.81 796.03 809.137
4669.71 784.411 794.632
4672.61 793.939 803.032
4675.52 787.137 794.367
4678.42 781.14 823.744
4681.32 757.633 783.545
4684.23 755.684 783.012
4687.13 798.141 801.234
4690.03 771.097 790.232
4692.94 766.777 787.179
4695.84 761.91 778.623
4698.74 759.166 777.169
4701.65 761.426 789.836
4704.55 788.731 810.32
4707.45 746.977 773.247
4710.35 753.929 788.858
4713.26 781.452 797.235
4716.16 746.152 781.166
4719.06 732.185 773
4721.96 759.16 776.575
4724.87 738.15 751.727
4727.77 721.332 766.429
4730.67 716.954 754.02
4733.57 729.384 751.829
4736.48 709.773 727.918
4739.38 687.822 720.219
4742.28 710.944 741.715
4745.18 698.593 729.128
4748.08 688.513 720.692
4750.98 684.714 710.659
4753.89 679.578 713.612
4756.79 672.106 704.619
4759.69 674.432 691.863
4762.59 679.568 711.559
4765.49 661.7 698.067
4768.39 655.016 677
4771.29 648.496 673.56
4774.2 626.387 673.201
4777.1 642.4 681.99
4780 646.071 688.619
4782.9 629.193 650.031
4785.8 626.34 650.63
4788.7 636.756 669.85
4791.6 606.542 640.648
4794.5 611.87 639.344
4797.4 587.222 626.19
4800.3 583.074 615.196
4803.2 611.294 623.009
4806.1 607.135 632.75
4809 581.893 610.147
4811.9 571.991 597.885
4814.8 546.473 594.743
4817.7 556.178 570.747
4820.6 574.032 583.045
4823.5 527.932 555.411
4826.4 513.126 551.234
4829.3 525.564 537.392
4832.2 491.953 519.034
4835.1 485.094 520.623
4838 471.202 497.591
4840.9 438.805 490.279
4843.8 461.685 479.326
4846.7 442.837 460.053
4849.6 408.658 442.789
4852.5 411.307 431.124
4855.4 357.519 382.397
4858.3 351.886 367.282
4861.19 342.411 352.022
4864.09 332.969 362.61
4866.99 342.286 383.22
4869.89 369.411 419.353
4872.79 397.137 417.655
4875.69 403.554 432.233
4878.59 415.958 456.209
4881.48 442.473 473.37
4884.38 445.681 494.037
4887.28 459.903 500.185
4890.18 462.289 509.015
4893.08 471.535 529.625
4895.97 495.713 538.456
4898.87 500.615 545.321
4901.77 503.306 554.378
4904.67 514.278 566.899
4907.57 531.652 574.95
4910.46 514.895 573.66
4913.36 541.914 590.967
4916.26 537.405 598.728
4919.16 572.985 614.579
4922.05 587.726 626.115
4924.95 571.33 601.374
4927.85 584.724 625.36
4930.74 579.098 616.33
4933.64 594.864 639.792
4936.54 595.41 650.178
4939.43 595.915 654.196
4942.33 589.542 647.575
4945.23 581.189 635.801
4948.12 566.729 636.663
4951.02 597.758 649.755
4953.92 590.213 653.39
4956.81 591.523 655.322
4959.71 577.075 648.025
4962.61 600.156 661.115
4965.5 595.304 653.902
4968.4 609.978 664.485
4971.29 610.067 681.01
4974.19 627.468 684.716
4977.09 597.358 657.609
4979.98 592.581 660.122
4982.88 593.066 658.385
4985.77 622.907 687.851
4988.67 608.395 675.316
4991.56 620.654 676.49
4994.46 606.806 668.024
4997.35 611.171 674.319
5000.25 618.559 686.781
5003.14 601.773 668.177
5006.04 610.76 683.812
5008.93 603.832 679.034
5011.83 618.887 687.825
5014.72 617.882 692.476
5017.62 591.546 678.2
5020.51 633.681 684.018
5023.41 599.821 660.053
5026.3 616.305 679.233
5029.2 587.599 659.703
5032.09 611.447 671.61
5034.98 604.309 675.566
5037.88 591.927 669.168
5040.77 606.848 660.155
5043.67 592.573 651.131
5046.56 609.98 673.454
5049.45 601.542 656.406
5052.35 611.316 674.556
5055.24 615.842 676.952
5058.13 602.696 667.433
5061.03 609.071 670.246
5063.92 596.142 673.012
5066.81 598.5 668.973
5069.71 593.477 666.019
5072.6 585.988 654.133
5075.49 594.549 661.488
5078.39 580.53 652.846
5081.28 599.609 664.312
5084.17 592.875 665.329
5087.06 613.325 672.734
5089.96 577.153 658.839
5092.85 595.375 670.385
5095.74 602.224 668.631
5098.63 589.205 659.946
5101.53 589.753 662.397
5104.42 591.717 667.101
5107.31 578.445 678.301
5110.2 582.17 656.461
5113.09 579.876 656.443
5115.99 602.265 662.235
5118.88 578.419 656.639
5121.77 579.575 648.761
5124.66 598.101 665.479
5127.55 583.128 669.67
5130.44 583.326 650.889
5133.34 566.229 652.505
5136.23 591.259 663.582
5139.12 585.158 655.209
5142.01 580.194 663.393
5144.9 585.912 665.477
5147.79 572.819 657.506
5150.68 571.955 661.842
5153.57 586.033 652.802
5156.46 583.021 652.931
5159.35 569.811 660.613
5162.24 579.319 670.227
5165.13 547.233 633.494
5168.02 588.445 669.54
5170.92 567.09 658.353
5173.81 569.228 660.334
5176.7 563.493 650.699
5179.59 576.432 651.666
5182.48 572.266 656.827
5185.36 546.389 647.459
5188.25 556.307 644.69
5191.14 553.026 640.27
5194.03 569.224 655.692
5196.92 563.29 655.829
5199.81 568.8 646.705
5202.7 550.115 631.944
5205.59 568.648 657.365
5208.48 561.38 647.388
5211.37 554.457 647.557
5214.26 574.042 646.014
5217.15 562.237 638.15
5220.04 547.641 621.817
5222.92 563.284 629.582
5225.81 552.17 633.769
5228.7 537.144 624.415
5231.59 540.108 627.814
5234.48 541.377 624.196
5237.37 547.775 631.545
5240.25 557.814 624.665
5243.14 513.139 617.367
5246.03 526.088 611.12
5248.92 555.894 629.085
5251.81 539.672 618.453
5254.69 548.456 630.471
5257.58 527.988 621.192
5260.47 526.818 618.146
5263.36 538.536 627.268
5266.24 535.156 625.571
5269.13 544.172 616.165
5272.02 532.959 617.229
5274.9 538.404 621.859
5277.79 526.312 616.328
5280.68 525.323 618.759
5283.56 544.245 629.001
5286.45 518.015 604.415
5289.34 504.236 589.577
5292.22 539.362 622.137
5295.11 533.362 616.333
5298 532.886 609.189
5300.88 521.106 613.026
5303.77 531.466 614.468
5306.65 517.653 592.881
5309.54 521.704 615.48
5312.43 525.948 617.35
5315.31 524.094 595.055
5318.2 524.115 591.904
5321.08 511.866 592.663
5323.97 515.353 615.216
5326.85 513.754 609.301
5329.74 502.577 597.072
5332.62 521.467 600.923
5335.51 500.481 587.762
5338.4 520.862 583.743
5341.28 519.396 590.314
5344.16 500.438 584.441
5347.05 498.34 588.56
5349.93 500.305 590.14
5352.82 496.526 584.27
5355.7 513.581 594.437
5358.59 519.18 602.74
5361.47 508.697 591.291
5364.36 488.77 583.111
5367.24 509.365 590.19
5370.12 496.112 599.719
5373.01 511.816 588.932
5375.89 518.178 594.209
5378.78 508.013 590.272
5381.66 509.44 600.835
5384.54 490.71 582.839
5387.43 505.657 584.538
5390.31 471.425 575.87
5393.19 494.376 594.213
5396.08 512.626 591.312
5398.96 497.541 590.635
5401.84 493.334 588.957
5404.72 485.447 584.458
5407.61 467.095 558.855
5410.49 491.834 584.803
5413.37 498.854 588.983
5416.25 470.705 563.947
5419.14 482.189 569.412
5422.02 475.763 573.914
5424.9 489.229 571.839
5427.78 486.387 573.231
5430.67 488.512 573.052
5433.55 480.282 568.486
5436.43 505.352 587.796
5439.31 483.436 578.958
5442.19 477.364 567.891
5445.07 481.379 569.013
5447.96 491.859 580.428
5450.84 468.912 567.46
5453.72 488.252 568.895
5456.6 464.515 555.509
5459.48 462.888 546.603
5462.36 478.299 564.461
5465.24 479.815 568.545
5468.12 494.13 571.279
5471 462.385 544.844
5473.88 474.493 580.287
5476.76 476.82 554.807
5479.64 468.181 555.936
5482.52 481.004 557.86
5485.4 468.786 543.973
5488.28 465.474 559.087
5491.16 467.517 545.487
5494.04 476.696 548.589
5496.92 444.005 540.236
5499.8 470.288 562.173
5502.68 452.911 547.611
5505.56 457.703 545.432
5508.44 467.359 546.385
5511.32 461.439 541.302
5514.2 450.204 528.369
5517.08 446.876 534.912
5519.96 458.395 549.287
5522.84 457.46 540.501
5525.72 449.906 539.291
5528.59 468.696 555.59
5531.47 452.955 540.105
5534.35 442.901 550.007
5537.23 460.888 548.778
5540.11 455.516 550.759
5542.99 458.065 543.161
5545.86 459.588 543.329
5548.74 457.32 540.163
5551.62 463.994 534.175
5554.5 436.572 538.468
5557.37 441.521 523.3
5560.25 449.864 544.407
5563.13 442.853 534.595
5566.01 445.593 525.431
5568.88 451.574 539.786
5571.76 448.952 526.882
5574.64 452.156 539.278
5577.52 459.522 535.687
5580.39 430.021 524.982
5583.27 471.173 541.483
5586.15 431.545 519.532
5589.02 443.887 522.803
5591.9 452.176 541.809
5594.77 431.741 527.828
5597.65 440.031 526.514
5600.53 424.529 510.672
5603.4 430.607 519.71
5606.28 437.644 522.368
5609.15 431.654 528.629
5612.03 424.306 513.651
5614.91 441.968 524.273
5617.78 435.115 528.457
5620.66 426.924 503.191
5623.53 441.342 524.645
5626.41 407.09 506.595
5629.28 430.856 529.711
5632.16 410.636 511.689
5635.03 421.879 518.374
5637.91 429.662 504.133
5640.78 422.187 510.347
5643.66 429.283 505.203
5646.53 411.602 497.945
5649.4 440.753 501.335
5652.28 426.012 501.968
5655.15 421.165 500.34
5658.03 429.003 511.388
5660.9 427.761 515.55
5663.77 425.018 505.995
5666.65 423.957 504.038
5669.52 419.376 496.319
5672.39 417.368 496.166
5675.27 411.417 490.429
5678.14 415.321 497.605
5681.01 420.764 497.176
5683.89 420.64 494.131
5686.76 406.343 494.95
5689.63 410.819 496.674
5692.51 414.422 502.318
5695.38 400.401 494.573
5698.25 413.574 498.908
5701.12 404.814 482.026
5704 416.915 490.254
5706.87 397.907 484.389
5709.74 412.856 492.849
5712.61 408.024 488.036
5715.48 389.508 483.623
5718.36 408.965 506.485
5721.23 402.951 492.374
5724.1 415.77 488.156
5726.97 402.532 481.516
5729.84 385.032 481.715
5732.71 395.739 481.916
5735.58 395.242 470.829
5738.45 389.672 480.087
5741.32 399.166 484.599
5744.2 413.642 501.502
5747.07 402.292 488.56
5749.94 401.328 478.751
5752.81 390.615 485.829
5755.68 402.45 478.092
5758.55 391.43 466.393
5761.42 404.546 485.213
5764.29 370.741 461.236
5767.16 391.53 488.496
5770.03 394.039 472.771
5772.9 389.866 480.174
5775.77 408.254 496.625
5778.64 388.542 479.914
5781.51 379.768 481.079
5784.37 381.524 470.441
5787.24 394.515 489.026
5790.11 383.954 470.186
5792.98 382.642 470.385
5795.85 405.331 473.69
5798.72 385.105 465.257
5801.59 372.741 469.908
5804.46 396.299 474.376
5807.32 383.185 469.643
5810.19 394.878 474.189
5813.06 382.721 468.688
5815.93 395.796 480.206
5818.8 373.28 447.136
5821.66 369.321 461.934
5824.53 381.423 457.46
5827.4 387.825 474.804
5830.27 376.304 458.559
5833.13 385.185 466.977
5836 385.521 462.758
5838.87 373.762 456.285
5841.73 405.229 486.01
5844.6 389.665 466.906
5847.47 394.168 460.042
5850.33 361.344 440.448
5853.2 383.548 467.143
5856.07 383.575 466.843
5858.93 385.618 474.355
5861.8 373.844 453.407
5864.67 375.74 464.109
5867.53 367.297 449.4
