wavelength spectrum_sum 3smoothed_sum spectrum_optimal 3smoothed_optimal
3395.96 631.199 501.89 438.133 355.65
3398.89 874.47 845.75 628.819 602.472
3401.83 1031.58 1005.97 740.464 711.778
3404.77 1111.85 1108.02 766.05 771.437
3407.7 1180.64 1119.81 807.795 766.899
3410.64 1066.94 1105.57 726.851 755.23
3413.57 1069.13 1097.9 731.045 761.223
3416.51 1157.64 1119.1 825.774 784.196
3419.45 1130.55 1135.02 795.768 798.439
3422.38 1116.87 1148.9 773.776 811.858
3425.32 1199.28 1165.69 866.031 826.391
3428.25 1180.92 1145.66 839.366 845.04
3431.19 1056.78 1109.26 829.723 824.357
3434.12 1090.1 1165.86 803.981 877.398
3437.06 1350.7 1221.91 998.489 909.08
3439.99 1224.95 1274.39 924.77 935.308
3442.93 1247.52 1248.68 882.666 896.106
3445.86 1273.57 1288.3 880.882 909.738
3448.8 1343.79 1285.99 965.668 916.724
3451.73 1240.6 1305.08 903.623 939.931
3454.67 1330.86 1293.66 950.501 948.622
3457.6 1309.54 1298.41 991.74 950.966
3460.54 1254.83 1302.2 910.657 967.928
3463.47 1342.24 1295.98 1001.39 955.062
3466.41 1290.85 1295.39 953.142 947.74
3469.34 1253.08 1253.47 888.692 904.419
3472.28 1216.48 1241.74 871.422 899.109
3475.21 1255.66 1283.42 937.211 942.589
3478.15 1378.13 1309.29 1019.13 968.465
3481.08 1294.08 1307.84 949.05 968.952
3484.02 1251.31 1292.15 938.673 953.004
3486.95 1331.05 1296.25 971.288 962.933
3489.88 1306.37 1315.59 978.837 979.688
3492.82 1309.35 1327.22 988.94 998.806
3495.75 1365.94 1362.54 1028.64 1017.33
3498.69 1412.32 1378.97 1034.41 1016.75
3501.62 1358.64 1398.61 987.189 1026.7
3504.55 1424.87 1416.08 1058.48 1053.68
3507.49 1464.74 1506.36 1115.37 1139.9
3510.42 1629.47 1528.41 1245.84 1161.18
3513.36 1491.02 1516.01 1122.34 1136.95
3516.29 1427.54 1441.83 1042.66 1065.57
3519.22 1406.94 1457.12 1031.69 1080.47
3522.16 1536.89 1499.68 1167.07 1127.96
3525.09 1555.2 1550.67 1185.12 1175.88
3528.02 1559.91 1587.58 1175.46 1217.25
3530.96 1647.62 1620.77 1291.17 1240.8
3533.89 1654.78 1601.42 1255.76 1244.15
3536.82 1501.87 1595.14 1185.53 1221.14
3539.76 1628.78 1584.04 1222.14 1211.36
3542.69 1621.47 1619.69 1226.41 1224.52
3545.62 1608.81 1638.21 1225.01 1243.19
3548.55 1684.35 1621.22 1278.15 1219.18
3551.49 1570.5 1651.78 1154.39 1240.35
3554.42 1700.5 1657.39 1288.52 1232.59
3557.35 1701.16 1659.13 1254.88 1254.46
3560.28 1575.71 1594.73 1219.97 1216.72
3563.22 1507.33 1559.11 1175.31 1208.48
3566.15 1594.28 1573.45 1230.17 1226.25
3569.08 1618.73 1584.6 1273.27 1214.31
3572.01 1540.79 1596.23 1139.48 1222.39
3574.95 1629.16 1598.71 1254.41 1218.47
3577.88 1626.18 1639.71 1261.52 1277.1
3580.81 1663.79 1678.81 1315.38 1312.07
3583.74 1746.46 1706.45 1359.29 1340.13
3586.67 1709.1 1702.24 1345.73 1323.86
3589.61 1651.16 1707.85 1266.58 1332.01
3592.54 1763.28 1686.04 1383.73 1311.27
3595.47 1643.66 1701.42 1283.51 1340.58
3598.4 1697.33 1674.11 1354.5 1324.25
3601.33 1681.35 1719.84 1334.74 1365.17
3604.26 1780.85 1767.84 1406.27 1402.32
3607.2 1841.33 1784.68 1465.94 1412.2
3610.13 1731.85 1759.79 1364.4 1386.35
3613.06 1706.19 1759.71 1328.72 1365.7
3615.99 1841.09 1821.4 1403.99 1410.38
3618.92 1916.9 1843.22 1498.44 1433.25
3621.85 1771.67 1830.29 1397.32 1431.47
3624.78 1802.28 1803.77 1398.64 1422.51
3627.71 1837.35 1835 1471.58 1454.04
3630.65 1865.37 1912.09 1491.89 1530.9
3633.58 2033.54 1920.99 1629.24 1532
3636.51 1864.05 1930.61 1474.86 1522.43
3639.44 1894.24 1883.05 1463.18 1467.54
3642.37 1890.85 1966.27 1464.59 1531.25
3645.3 2113.74 2003.53 1665.98 1568.97
3648.23 2006 2019.4 1576.35 1589.07
3651.16 1938.46 1947.96 1524.88 1532.32
3654.09 1899.42 1926.09 1495.72 1515.93
3657.02 1940.41 1956.47 1527.2 1555.37
3659.95 2029.58 1991.98 1643.19 1578.64
3662.88 2005.96 2006.74 1565.54 1598.01
3665.81 1984.68 1981.6 1585.31 1547.2
3668.74 1954.15 2024.89 1490.75 1593.4
3671.67 2135.83 2037.63 1704.12 1594.44
3674.6 2022.91 2072.75 1588.45 1641.38
3677.53 2059.51 2050.67 1631.56 1628.46
3680.46 2069.59 2089.75 1665.37 1659.7
3683.39 2140.14 2132.08 1682.16 1711.7
3686.32 2186.52 2143.85 1787.56 1717.83
3689.25 2104.91 2144.51 1683.78 1720.87
3692.18 2142.12 2158.64 1691.27 1713.91
3695.11 2228.91 2224.97 1766.69 1760.42
3698.04 2303.89 2266.13 1823.32 1802.97
3700.97 2265.59 2371.46 1818.91 1915.37
3703.9 2544.9 2393.65 2103.88 1950.68
3706.83 2370.47 2424.99 1929.25 1970.7
3709.75 2359.6 2405.84 1878.97 1930.71
3712.68 2487.45 2444.88 1983.92 1957.34
3715.61 2487.6 2454.67 2009.13 1950.21
3718.54 2388.96 2438.56 1857.59 1957.07
3721.47 2439.12 2426.04 2004.48 1948.85
3724.4 2450.05 2455.07 1984.5 1992.58
3727.33 2476.05 2483.04 1988.78 1988.61
3730.26 2523.04 2546.52 1992.57 2045.67
3733.19 2640.47 2599.92 2155.66 2095.58
3736.11 2636.24 2661.82 2138.52 2147.21
3739.04 2708.75 2636.25 2147.43 2105.46
3741.97 2563.76 2639.44 2030.42 2117.84
3744.9 2645.8 2681.53 2175.68 2166.13
3747.83 2835.03 2731.95 2292.31 2229.77
3750.75 2715.02 2743.48 2221.33 2224.45
3753.68 2680.4 2692.8 2159.72 2175.95
3756.61 2682.97 2619.65 2146.79 2086.47
3759.54 2495.6 2592.36 1952.91 2068.87
3762.47 2598.53 2580.43 2106.91 2083.83
3765.39 2647.16 2616.02 2191.65 2127.3
3768.32 2602.38 2596.59 2083.34 2110.11
3771.25 2540.23 2534.78 2055.34 2059.55
3774.18 2461.75 2533.74 2039.96 2065.97
3777.11 2599.25 2551.55 2102.62 2083.24
3780.03 2593.66 2625.87 2107.14 2142.38
3782.96 2684.72 2622.45 2217.39 2140.32
3785.89 2588.99 2632.05 2096.42 2155.84
3788.81 2622.44 2622.84 2153.72 2133.57
3791.74 2657.09 2665.17 2150.57 2167.36
3794.67 2715.98 2732.2 2197.79 2222.4
3797.6 2823.53 2772.45 2318.82 2253.72
3800.52 2777.85 2829.71 2244.54 2314.04
3803.45 2887.75 2805.81 2378.75 2307.12
3806.38 2751.85 2828.09 2298.08 2352.01
3809.3 2844.67 2850.64 2379.21 2365.64
3812.23 2955.39 2935.3 2419.62 2423.32
3815.16 3005.83 2974.01 2471.13 2447.01
3818.08 2960.79 2953.86 2450.28 2446.1
3821.01 2894.94 2921.16 2416.87 2429.81
3823.94 2907.76 2898.31 2422.27 2416.44
3826.86 2892.24 2920.14 2410.18 2428.81
3829.79 2960.43 2920.94 2453.99 2436.72
3832.72 2910.17 2921.38 2445.99 2432.09
3835.64 2893.54 2933.12 2396.28 2438.81
3838.57 2995.64 3032.71 2474.17 2512.87
3841.49 3208.95 3110.61 2668.15 2570.4
3844.42 3127.24 3256.23 2568.88 2714.6
3847.35 3432.51 3267.62 2906.76 2752.38
3850.27 3243.11 3336.32 2781.49 2824.71
3853.2 3333.35 3310.27 2785.89 2791.73
3856.12 3354.35 3367.83 2807.8 2823.27
3859.05 3415.78 3381.55 2876.1 2810.39
3861.97 3374.52 3406.07 2747.26 2834.47
3864.9 3427.91 3391.83 2880.03 2811.28
3867.82 3373.06 3387.54 2806.54 2829.49
3870.75 3361.65 3305.67 2801.91 2756.19
3873.67 3182.31 3218.78 2660.12 2682.89
3876.6 3112.39 3093.73 2586.64 2585.49
3879.53 2986.49 2969.1 2509.72 2468.68
3882.45 2808.42 2850.24 2309.68 2381.27
3885.38 2755.82 2840.81 2324.42 2387.17
3888.3 2958.21 2863.85 2527.42 2437.41
3891.23 2877.52 2983.85 2460.39 2563.37
3894.15 3115.82 3052.29 2702.31 2642.69
3897.07 3163.53 3244.81 2765.37 2807.15
3900 3455.09 3365.92 2953.79 2894.53
3902.92 3479.14 3532.36 2964.43 3024.31
3905.85 3662.85 3573.76 3154.71 3061.31
3908.77 3579.28 3684.79 3064.8 3169.93
3911.7 3812.25 3803.62 3290.27 3256.43
3914.62 4019.32 3953.97 3414.2 3388.27
3917.55 4030.32 4100.31 3460.32 3497.96
3920.47 4251.29 4197.17 3619.36 3582.07
3923.39 4309.89 4299.43 3666.52 3675.85
3926.32 4337.1 4280.17 3741.67 3668.06
3929.24 4193.51 4252.23 3596 3656.35
3932.17 4226.07 4201.86 3631.4 3603.26
3935.09 4186.01 4166.31 3582.38 3581.44
3938.01 4086.85 4081.84 3530.54 3501.41
3940.94 3972.65 3977.65 3391.32 3406.52
3943.86 3873.46 3896.78 3297.7 3306.12
3946.78 3844.22 3820.98 3229.33 3256.29
3949.71 3745.26 3710.69 3241.83 3170.72
3952.63 3542.58 3516.26 3041 2998.26
3955.55 3260.93 3339.56 2711.95 2842.24
3958.48 3215.16 3134.25 2773.77 2672.26
3961.4 2926.67 2988.95 2531.06 2565.08
3964.32 2825.02 2848.31 2390.39 2433.75
3967.25 2793.23 2849.91 2379.79 2426.51
3970.17 2931.49 2942.71 2509.33 2521.9
3973.09 3103.4 3049.37 2676.58 2633.81
3976.02 3113.22 3188.76 2715.52 2805.15
3978.94 3349.67 3345.32 3023.34 2958
3981.86 3573.08 3502.96 3135.14 3074.4
3984.78 3586.13 3706.73 3064.71 3244.93
3987.71 3960.97 3852.58 3534.94 3342.36
3990.63 4010.63 4083.63 3427.44 3555.96
3993.55 4279.3 4225.07 3705.49 3645.54
3996.47 4385.3 4431.74 3803.69 3873.74
3999.4 4630.61 4572.49 4112.04 4018.2
4002.32 4701.56 4738.8 4138.87 4201.96
4005.24 4884.22 4837.64 4354.96 4283.79
4008.16 4927.16 4928.04 4357.55 4376.85
4011.08 4972.74 4965.61 4418.05 4388.26
4014.01 4996.92 5081.94 4389.18 4458.33
4016.93 5276.15 5222.62 4567.75 4534.96
4019.85 5394.79 5353.71 4647.94 4681.43
4022.77 5390.19 5442.27 4828.58 4777.39
4025.69 5541.84 5491.3 4855.64 4854.64
4028.62 5541.86 5536.8 4879.69 4858.43
4031.54 5526.7 5541.19 4839.97 4885.24
4034.46 5555.01 5570.78 4936.05 4925.01
4037.38 5630.63 5626.19 4999 4982.25
4040.3 5692.92 5588.07 5011.69 4944.53
4043.22 5440.67 5535.58 4822.89 4878.45
4046.14 5473.17 5477.38 4800.78 4840.79
4049.06 5518.3 5470.49 4898.69 4843.99
4051.99 5420.01 5437.54 4832.48 4824.36
4054.91 5374.31 5409.55 4741.92 4784.64
4057.83 5434.33 5320.04 4779.53 4656.53
4060.75 5151.48 5255.07 4448.15 4606.01
4063.67 5179.39 5066.37 4590.36 4452.31
4066.59 4868.25 4971.19 4318.41 4397.1
4069.51 4865.92 4863.32 4282.53 4319.34
4072.43 4855.78 4791.9 4357.07 4260.13
4075.35 4654 4697.38 4140.78 4198.11
4078.27 4582.36 4541.73 4096.49 4050.75
4081.19 4388.82 4374.82 3914.97 3886.21
4084.11 4153.26 4121.45 3647.18 3649.87
4087.03 3822.25 3863.84 3387.48 3373.18
4089.95 3616.02 3622.55 3084.88 3156.59
4092.87 3429.38 3393.59 2997.41 2916.63
4095.79 3135.35 3186.75 2667.59 2753.6
4098.71 2995.51 3070.4 2595.78 2684.88
4101.63 3080.35 3103.31 2791.28 2776.1
4104.55 3234.08 3205.29 2941.23 2872.22
4107.47 3301.44 3366.06 2884.17 3037.08
4110.39 3562.65 3552.32 3285.85 3185.94
4113.31 3792.86 3766.77 3387.81 3427.23
4116.23 3944.81 3959.5 3608.04 3565.72
4119.15 4140.82 4190.62 3701.32 3773.3
4122.07 4486.22 4395.49 4010.55 3952.11
4124.99 4559.44 4564.14 4144.46 4090.53
4127.91 4646.78 4674.73 4116.58 4218.48
4130.83 4817.98 4844.41 4394.41 4358.04
4133.75 5068.46 5027.95 4563.12 4602.51
4136.66 5197.41 5232.38 4850.01 4767.4
4139.58 5431.26 5406.09 4889.07 4947.29
4142.5 5589.6 5548.61 5102.8 5041.2
4145.42 5624.97 5710.77 5131.74 5231.61
4148.34 5917.75 5834.7 5460.3 5344.63
4151.26 5961.38 6022.1 5441.87 5518.34
4154.18 6187.17 6110.53 5652.86 5573.54
4157.1 6183.04 6268.6 5625.88 5706.09
4160.01 6435.59 6284.28 5839.52 5702.05
4162.93 6234.21 6427.53 5640.75 5834.46
4165.85 6612.77 6523.37 6023.13 5964.6
4168.77 6723.12 6681.75 6229.92 6124.08
4171.69 6709.36 6730.62 6119.2 6170.44
4174.61 6759.38 6790.92 6162.19 6208.19
4177.52 6904.01 6863.47 6343.19 6282.05
4180.44 6927.03 6917.62 6340.78 6338.28
4183.36 6921.81 6978.91 6330.88 6409.11
4186.28 7087.9 7039.54 6555.66 6463.01
4189.19 7108.91 7170.64 6502.49 6589.39
4192.11 7315.12 7218.33 6710.01 6631.78
4195.03 7230.98 7228.17 6682.83 6635.14
4197.95 7138.4 7254.82 6512.59 6667.69
4200.86 7395.08 7295.14 6807.64 6688.48
4203.78 7351.93 7348.8 6745.21 6753.93
4206.7 7299.37 7386.57 6708.95 6786.13
4209.62 7508.39 7372.81 6904.23 6793.63
4212.53 7310.67 7451.39 6767.7 6846.59
4215.45 7535.1 7339.16 6867.84 6745.64
4218.37 7171.71 7404.69 6601.39 6798.29
4221.28 7507.26 7367.69 6925.63 6795.03
4224.2 7424.11 7515.11 6858.07 6924.89
4227.12 7613.98 7477.98 6990.98 6895.26
4230.04 7395.87 7434.35 6836.74 6903.87
4232.95 7293.19 7376.56 6883.88 6876
4235.87 7440.62 7402.42 6907.37 6915.1
4238.78 7473.45 7429.28 6954.05 6897.16
4241.7 7373.76 7362.89 6830.06 6831.38
4244.62 7241.47 7433.64 6710.02 6886.05
4247.53 7685.7 7445.59 7118.06 6924.14
4250.45 7409.59 7491.15 6944.33 6982.76
4253.37 7378.14 7415.36 6885.89 6882.82
4256.28 7458.34 7386.4 6818.25 6846.16
4259.2 7322.71 7421.07 6834.33 6844.4
4262.11 7482.17 7396.51 6880.61 6847.66
4265.03 7384.66 7402.93 6828.03 6833.52
4267.95 7341.97 7358.09 6791.93 6835.03
4270.86 7347.63 7256.13 6885.12 6770.98
4273.78 7078.8 7183.89 6635.88 6732.52
4276.69 7125.23 7080.56 6676.56 6628.24
4279.61 7037.66 7069.52 6572.28 6626.08
4282.52 7045.67 6997.8 6629.39 6545.47
4285.44 6910.07 6871.88 6434.74 6454.78
4288.35 6659.91 6730.99 6300.21 6298.71
4291.27 6623 6585.86 6161.17 6199.49
4294.18 6474.68 6502.31 6137.1 6106.7
4297.1 6409.26 6442.88 6021.83 6063.57
4300.01 6444.69 6317.47 6031.77 5914.97
4302.93 6098.46 6162.76 5691.32 5763.15
4305.84 5945.13 5913.24 5566.36 5529.93
4308.76 5696.13 5787.95 5332.12 5437.02
4311.67 5722.59 5647.42 5412.59 5283.65
4314.59 5523.55 5472.72 5106.23 5080.02
4317.5 5172.01 5279.76 4721.26 4851.74
4320.42 5143.72 5039 4727.72 4641.4
4323.33 4801.26 4829.56 4475.21 4489.17
4326.25 4543.69 4547.63 4264.59 4222.59
4329.16 4297.93 4293.37 3927.98 3936.77
4332.07 4038.5 4025.54 3617.73 3638.01
4334.99 3740.2 3806.26 3368.3 3463.17
4337.9 3640.08 3671.32 3403.49 3380.26
4340.82 3633.69 3644.86 3368.98 3388.99
4343.73 3660.83 3703.06 3394.49 3452.92
4346.64 3814.66 3925.71 3595.28 3649.64
4349.56 4301.63 4097.78 3959.16 3863.45
4352.47 4177.06 4359.43 4035.91 4104.46
4355.39 4599.6 4506.16 4318.3 4305.78
4358.3 4741.84 4708.72 4563.13 4511.58
4361.21 4784.73 4856.7 4653.31 4687.97
4364.13 5043.52 5070.51 4847.47 4887.78
4367.04 5383.27 5355.73 5162.56 5158.17
4369.95 5640.41 5618.15 5464.48 5394.6
4372.87 5830.77 5766.03 5556.75 5535.13
4375.78 5826.9 5916.58 5584.17 5667.12
4378.69 6092.08 6075.49 5860.43 5833.88
4381.6 6307.48 6240.97 6057.05 6031.56
4384.52 6323.34 6422.11 6177.21 6213.6
4387.43 6635.51 6515.59 6406.54 6307.58
4390.34 6587.92 6636.2 6338.98 6392.32
4393.26 6685.17 6750.32 6431.44 6498.02
4396.17 6977.87 6912.67 6723.64 6648.64
4399.08 7074.96 7079.81 6790.83 6830.6
4401.99 7186.61 7205.06 6977.33 6938.51
4404.91 7353.6 7299.66 7047.38 7063.53
4407.82 7358.78 7373.93 7165.88 7147.92
4410.73 7409.43 7431.93 7230.49 7231.05
4413.64 7527.59 7525.33 7296.79 7301.91
4416.55 7638.96 7570.72 7378.44 7325.97
4419.47 7545.61 7604.98 7302.68 7381.27
4422.38 7630.37 7587.44 7462.7 7400.14
4425.29 7586.33 7665.41 7435.03 7466.28
4428.2 7779.52 7754.78 7501.11 7496.48
4431.11 7898.5 7845.6 7553.3 7583.84
4434.02 7858.78 7855.64 7697.12 7643.62
4436.94 7809.65 7871.63 7680.43 7695.47
4439.85 7946.47 7919.86 7708.86 7716.18
4442.76 8003.47 7971.29 7759.24 7744.36
4445.67 7963.94 7924.81 7764.98 7696.49
4448.58 7807.01 7954.5 7565.25 7743.68
4451.49 8092.55 7979.61 7900.8 7780.66
4454.4 8039.26 8029.09 7875.92 7867.05
4457.31 7955.45 8012.11 7824.43 7869.3
4460.23 8041.61 8051.92 7907.54 7889.68
4463.14 8158.69 8104.88 7937.07 7905.65
4466.05 8114.34 8175.44 7872.33 7956.72
4468.96 8253.29 8090.19 8060.76 7887.76
4471.87 7902.93 8070.19 7730.19 7897.94
4474.78 8054.34 7975.09 7902.89 7803.71
4477.69 7968.01 8058.68 7778.05 7884.72
4480.6 8153.69 8150.08 7973.23 7983.74
4483.51 8328.55 8240.06 8199.93 8083.81
4486.42 8237.94 8282.55 8078.27 8141.47
4489.33 8281.16 8277.6 8146.23 8125.19
4492.24 8313.7 8290.62 8151.07 8140.57
4495.15 8277 8343.97 8124.41 8231.46
4498.06 8441.21 8360.17 8418.9 8266.4
4500.97 8362.3 8306.7 8255.88 8270.08
4503.88 8116.59 8246.45 8135.45 8180.03
4506.79 8260.46 8249.18 8148.75 8160.96
4509.7 8370.49 8324.05 8198.67 8182.77
4512.61 8341.2 8354.75 8200.89 8210.77
4515.52 8352.56 8351.43 8232.75 8217.67
4518.43 8360.52 8387.11 8219.36 8295.81
4521.34 8448.24 8397.32 8435.31 8317.13
4524.25 8383.18 8392.51 8296.72 8374.06
4527.16 8346.1 8198.16 8390.15 8277.6
4530.07 7865.2 8093.68 8145.92 8273.1
4532.97 8069.75 7944.69 8283.25 8179.6
4535.88 7899.11 7977.02 8109.62 8248.33
4538.79 7962.2 7902.48 8352.11 8167.47
4541.7 7846.13 7875.47 8040.68 8178.34
4544.61 7818.07 7878.65 8142.24 8194.47
4547.52 7971.76 7984.26 8400.5 8314.34
4550.43 8162.95 8005.05 8400.29 8330.8
4553.34 7880.44 8010.4 8191.61 8320.28
4556.24 7987.81 8005.42 8368.94 8329.57
4559.15 8148.03 8069.2 8428.16 8369.41
4562.06 8071.77 8041.07 8311.12 8308.22
4564.97 7903.43 8013.3 8185.38 8264.31
4567.88 8064.7 7995.68 8296.44 8277.07
4570.78 8018.91 8060.97 8349.4 8364.87
4573.69 8099.29 8091.97 8448.77 8386.08
4576.6 8157.71 8154.82 8360.08 8444.56
4579.51 8207.46 8133.14 8524.84 8410.06
4582.42 8034.25 8148.73 8345.25 8477.14
4585.32 8204.5 8073.61 8561.33 8390.36
4588.23 7982.1 8010.86 8264.51 8359.92
4591.14 7845.98 8003.15 8253.9 8319.94
4594.05 8181.38 8097.26 8441.4 8403.16
4596.95 8264.41 8153.62 8514.19 8434.38
4599.86 8015.05 8114.17 8347.55 8413.59
4602.77 8063.03 8133.3 8379.03 8486.38
4605.67 8321.82 8143.31 8732.55 8498.51
4608.58 8045.08 8177.69 8383.96 8531.46
4611.49 8166.16 8078.9 8477.87 8409.37
4614.4 8025.44 8079.87 8366.3 8455.37
4617.3 8048 8013.86 8521.95 8432.39
4620.21 7968.14 8059.76 8408.92 8460.58
4623.12 8163.14 8060.21 8450.87 8414.05
4626.02 8049.35 8065.25 8382.35 8392.79
4628.93 7983.24 8063.75 8345.13 8413.12
4631.84 8158.65 8055.32 8511.88 8427.05
4634.74 8024.08 8095.3 8424.13 8523.04
4637.65 8103.17 8082.91 8633.12 8519.05
4640.55 8121.48 8073.64 8499.89 8510.22
4643.46 7996.26 7995.22 8397.64 8374.53
4646.37 7867.92 8019.11 8226.06 8381.71
4649.27 8193.15 8029.94 8521.44 8410.48
4652.18 8028.75 8157.04 8483.96 8518.51
4655.08 8249.21 8214.46 8550.13 8605.43
4657.99 8365.43 8264.64 8782.21 8667.82
4660.9 8179.3 8254.68 8671.12 8733.06
4663.8 8219.33 8207.18 8745.85 8704.61
4666.71 8222.92 8181.89 8696.86 8664.06
4669.61 8103.44 8204.43 8549.47 8631.4
4672.52 8286.94 8205.92 8647.89 8586.93
4675.42 8227.39 8246.52 8563.44 8700.53
4678.33 8225.25 8115.9 8890.25 8639.81
4681.23 7895.06 8028.4 8465.73 8609
4684.14 7964.91 8041.32 8471.01 8538.85
4687.04 8263.99 8136.32 8679.81 8574.49
4689.95 8180.05 8198.28 8572.64 8601.93
4692.85 8150.8 8097.58 8553.34 8533.37
4695.76 7961.88 8021.97 8474.12 8500.49
4698.66 7953.22 8011.68 8474.02 8526.19
4701.57 8119.95 8130.49 8630.42 8659.38
4704.47 8318.29 8150.28 8873.7 8663.82
4707.37 8012.6 8172.91 8487.32 8680.85
4710.28 8187.84 8153.45 8681.54 8655.56
4713.18 8259.9 8150.61 8797.82 8708.56
4716.09 8004.09 8082.45 8646.33 8675.75
4718.99 7983.35 8055.97 8583.09 8627.11
4721.89 8180.48 8033.96 8651.92 8546.36
4724.8 7938.06 8023.1 8404.08 8551.64
4727.7 7950.76 7922.19 8598.92 8497.62
4730.61 7877.74 7922.71 8489.87 8528.47
4733.51 7939.63 7897.25 8496.62 8414.07
4736.41 7874.39 7854.47 8255.71 8317.12
4739.32 7749.39 7836.69 8199.03 8309.45
4742.22 7886.28 7822.11 8473.61 8344
4745.12 7830.65 7818.12 8359.35 8374.55
4748.03 7737.42 7751.76 8290.69 8284.14
4750.93 7687.22 7702.77 8202.38 8251.61
4753.83 7683.67 7649.34 8261.76 8215.21
4756.74 7577.12 7604.67 8181.5 8166.25
4759.64 7553.22 7608.27 8055.5 8180.61
4762.54 7694.47 7593.5 8304.82 8175.4
4765.44 7532.83 7539.48 8165.87 8135.05
4768.35 7391.16 7445.43 7934.46 8002.36
4771.25 7412.31 7391.04 7906.74 7918.05
4774.15 7369.65 7416.2 7912.94 7947.46
4777.05 7466.65 7419.3 8022.7 8013.38
4779.96 7421.61 7344.42 8104.5 7926.15
4782.86 7145.01 7230.23 7651.23 7803.66
4785.76 7124.08 7166.89 7655.24 7726.93
4788.66 7231.59 7084.73 7874.32 7683.33
4791.57 6898.51 7038.25 7520.41 7629.25
4794.47 6984.65 6891.67 7493.03 7445.63
4797.37 6791.83 6771.35 7323.45 7331.29
4800.27 6537.56 6666 7177.4 7250.04
4803.17 6668.62 6681.8 7249.26 7255.88
4806.07 6839.23 6678.85 7340.98 7215.53
4808.98 6528.7 6596.68 7056.33 7096.26
4811.88 6422.1 6401.74 6891.46 6926.31
4814.78 6254.42 6244.67 6831.15 6751.57
4817.68 6057.48 6184.26 6532.09 6670.68
4820.58 6240.89 6034.2 6648.79 6496.96
4823.48 5804.23 5936.53 6310 6399.72
4826.38 5764.45 5759.43 6240.36 6204.05
4829.28 5709.6 5626.21 6061.8 6045.46
4832.19 5404.57 5499.96 5834.23 5909.76
4835.09 5385.7 5313.76 5833.25 5741.81
4837.99 5151 5158.99 5557.96 5617.22
4840.89 4940.27 5000.62 5460.45 5447.79
4843.79 4910.58 4870.36 5324.96 5294.85
4846.69 4760.21 4729.66 5099.14 5107.59
4849.59 4518.19 4570.69 4898.68 4920.06
4852.49 4433.66 4282.69 4762.35 4626.85
4855.39 3896.22 4029.35 4219.51 4344.33
4858.29 3758.17 3771.12 4051.13 4051.2
4861.19 3658.97 3694.1 3882.95 3978.64
4864.09 3665.16 3700.24 4001.83 4039.34
4866.99 3776.58 3874.78 4233.25 4291.34
